s,intensity
1,5698.81
1.0018,5611.04
1.0036,5454.95
1.0054,5341.87
1.0072,5228.02
1.009,5133.24
1.0108,4944.51
1.0126,4834.67
1.0144,4709.46
1.0162,4609.69
1.018,4480.69
1.0198,4322.47
1.0216,4197.89
1.0234,4124.87
1.02521,3957.96
1.02701,3850.58
1.02881,3705.32
1.03061,3647.16
1.03241,3521.33
1.03421,3365.65
1.03601,3304.68
1.03781,3259.99
1.03961,3109.66
1.04141,3011.29
1.04321,2945.98
1.04501,2859.94
1.04681,2802.92
1.04861,2715.42
1.05041,2631.31
1.05221,2586.83
1.05401,2558.16
1.05581,2511.4
1.05761,2410.85
1.05941,2424.41
1.06121,2412.73
1.06301,2352.64
1.06481,2292.87
1.06661,2307.32
1.06841,2356.24
1.07021,2285.38
1.07201,2263.53
1.07381,2335.92
1.07562,2345.14
1.07742,2298.79
1.07922,2374.08
1.08102,2367.94
1.08282,2371.94
1.08462,2463.12
1.08642,2458.01
1.08822,2521.34
1.09002,2505.28
1.09182,2588.68
1.09362,2612.98
1.09542,2705.99
1.09722,2734.72
1.09902,2774.57
1.10082,2842.48
1.10262,2874.21
1.10442,2961.61
1.10622,3049.54
1.10802,3049.02
1.10982,3129.43
1.11162,3176.58
1.11342,3288.79
1.11522,3343.83
1.11702,3422.23
1.11882,3455.55
1.12062,3471.99
1.12242,3539.21
1.12422,3647.12
1.12603,3712.83
1.12783,3732.36
1.12963,3794.6
1.13143,3809.49
1.13323,3853.65
1.13503,3970
1.13683,4009.75
1.13863,4063.97
1.14043,4034.34
1.14223,4084.31
1.14403,4169.85
1.14583,4138.28
1.14763,4239.41
1.14943,4229.94
1.15123,4257.52
1.15303,4256.33
1.15483,4248.93
1.15663,4304.51
1.15843,4372.68
1.16023,4311.57
1.16203,4286.3
1.16383,4336.82
1.16563,4372.89
1.16743,4307.68
1.16923,4351.19
1.17103,4328.28
1.17283,4338.23
1.17463,4310.5
1.17644,4314.92
1.17824,4324.52
1.18004,4265.29
1.18184,4280.22
1.18364,4285.04
1.18544,4262.37
1.18724,4267.39
1.18904,4221.24
1.19084,4203.12
1.19264,4206.5
1.19444,4182.7
1.19624,4165.84
1.19804,4141.01
1.19984,4131.01
1.20164,4080.66
1.20344,4082.17
1.20524,4096.33
1.20704,4057.15
1.20884,4051.45
1.21064,4021.99
1.21244,4000.77
1.21424,3988.76
1.21604,4043.36
1.21784,4000.47
1.21964,3969.18
1.22144,3932.05
1.22324,3984.3
1.22504,3986.93
1.22685,3958.17
1.22865,3956.3
1.23045,3960.08
1.23225,3985.29
1.23405,3963.83
1.23585,3961.03
1.23765,3983.76
1.23945,4007.69
1.24125,4034.78
1.24305,4001.33
1.24485,4029.56
1.24665,4066.5
1.24845,4083.04
1.25025,4101.29
1.25205,4158.2
1.25385,4142.05
1.25565,4151.19
1.25745,4203.46
1.25925,4255.13
1.26105,4275.07
1.26285,4305.67
1.26465,4322.27
1.26645,4333.45
1.26825,4413.85
1.27005,4442.44
1.27185,4452
1.27365,4497.8
1.27546,4524.98
1.27726,4553.79
1.27906,4591.46
1.28086,4633.88
1.28266,4656.86
1.28446,4693.19
1.28626,4724.24
1.28806,4737.65
1.28986,4774.86
1.29166,4809.18
1.29346,4837.25
1.29526,4854.3
1.29706,4877
1.29886,4870.48
1.30066,4933.32
1.30246,4933.23
1.30426,4943.83
1.30606,4958.08
1.30786,4980.85
1.30966,4947.04
1.31146,4967.66
1.31326,4977.45
1.31506,4989.02
1.31686,4983.53
1.31866,4968.24
1.32046,4937.61
1.32226,4938.93
1.32406,4949.51
1.32587,4916.55
1.32767,4906.02
1.32947,4896.62
1.33127,4858.84
1.33307,4806.66
1.33487,4798.34
1.33667,4749.69
1.33847,4734.03
1.34027,4710.14
1.34207,4637.21
1.34387,4594.29
1.34567,4570.1
1.34747,4504.74
1.34927,4445.5
1.35107,4422.68
1.35287,4382.15
1.35467,4292.1
1.35647,4242.53
1.35827,4195.99
1.36007,4141.23
1.36187,4070.67
1.36367,4011.28
1.36547,3934.94
1.36727,3914.94
1.36907,3854.72
1.37087,3775.44
1.37267,3709.85
1.37447,3655.69
1.37628,3615.78
1.37808,3541.89
1.37988,3495.49
1.38168,3428.12
1.38348,3349.8
1.38528,3313.08
1.38708,3257.13
1.38888,3181.76
1.39068,3151.09
1.39248,3085.49
1.39428,3041.96
1.39608,2964.17
1.39788,2930.43
1.39968,2926.87
1.40148,2826.32
1.40328,2797.47
1.40508,2758.13
1.40688,2737.58
1.40868,2707.71
1.41048,2644.13
1.41228,2600.07
1.41408,2603.17
1.41588,2576.34
1.41768,2547.75
1.41948,2523.94
1.42128,2502.2
1.42308,2499.02
1.42489,2478.29
1.42669,2467.51
1.42849,2432.39
1.43029,2412.47
1.43209,2446.3
1.43389,2445.21
1.43569,2405.95
1.43749,2424.25
1.43929,2415.88
1.44109,2424.43
1.44289,2456.52
1.44469,2397.69
1.44649,2441.95
1.44829,2448.12
1.45009,2449.13
1.45189,2468.36
1.45369,2478.12
1.45549,2493.07
1.45729,2504.89
1.45909,2501.04
1.46089,2522.51
1.46269,2540.58
1.46449,2563.35
1.46629,2585.34
1.46809,2588.75
1.46989,2591.67
1.47169,2619.3
1.47349,2637.36
1.4753,2645.7
1.4771,2668.71
1.4789,2671.09
1.4807,2691.54
1.4825,2715.73
1.4843,2706.36
1.4861,2747.83
1.4879,2736.61
1.4897,2741.11
1.4915,2758.49
1.4933,2762.91
1.4951,2780.13
1.4969,2800.34
1.4987,2780.77
1.5005,2781.22
1.5023,2788.58
1.5041,2779.47
1.5059,2787.49
1.5077,2791.35
1.5095,2781.67
1.5113,2794.12
1.5131,2766.28
1.5149,2760.99
1.5167,2754.9
1.5185,2730.62
1.5203,2703.44
1.5221,2730.64
1.5239,2727.4
1.52571,2683.24
1.52751,2664.91
1.52931,2631.05
1.53111,2636.7
1.53291,2601.65
1.53471,2584.26
1.53651,2570.19
1.53831,2531.97
1.54011,2515.8
1.54191,2505.66
1.54371,2472.15
1.54551,2425.96
1.54731,2410.06
1.54911,2392.64
1.55091,2368.91
1.55271,2338.8
1.55451,2331.47
1.55631,2279.09
1.55811,2247.43
1.55991,2232.66
1.56171,2218.77
1.56351,2186.42
1.56531,2152.34
1.56711,2153.26
1.56891,2132.3
1.57071,2091.05
1.57251,2059.36
1.57431,2057.71
1.57612,2058.75
1.57792,2035.73
1.57972,2014.06
1.58152,1983.81
1.58332,1991.49
1.58512,1966.19
1.58692,1953.93
1.58872,1956.07
1.59052,1966.57
1.59232,1935.38
1.59412,1937.79
1.59592,1946.1
1.59772,1937.01
1.59952,1922.52
1.60132,1922.96
1.60312,1954.41
1.60492,1951.11
1.60672,1952.98
1.60852,1979.76
1.61032,1970.78
1.61212,1966.72
1.61392,1989.97
1.61572,2005.06
1.61752,2017.33
1.61932,2034.2
1.62112,2057.04
1.62292,2069.87
1.62472,2084.84
1.62653,2091.4
1.62833,2108.48
1.63013,2120.41
1.63193,2169.31
1.63373,2178.08
1.63553,2182.96
1.63733,2213.96
1.63913,2231.04
1.64093,2237.84
1.64273,2260.61
1.64453,2275.64
1.64633,2300.29
1.64813,2313.46
1.64993,2346.3
1.65173,2355.13
1.65353,2369
1.65533,2374.33
1.65713,2393.22
1.65893,2408.2
1.66073,2425.33
1.66253,2436.18
1.66433,2445.68
1.66613,2471.41
1.66793,2471.79
1.66973,2483.01
1.67153,2481.29
1.67333,2505.39
1.67514,2515.07
1.67694,2526.36
1.67874,2535.7
1.68054,2538.53
1.68234,2550.66
1.68414,2563.89
1.68594,2571.37
1.68774,2573.06
1.68954,2594.57
1.69134,2605.15
1.69314,2626.21
1.69494,2633.95
1.69674,2647.56
1.69854,2659.92
1.70034,2673.46
1.70214,2690.98
1.70394,2732.5
1.70574,2753.01
1.70754,2764.17
1.70934,2789.98
1.71114,2803.32
1.71294,2838.73
1.71474,2864.06
1.71654,2919.02
1.71834,2949.8
1.72014,2971.31
1.72194,3010.75
1.72374,3055.33
1.72555,3100.42
1.72735,3131.66
1.72915,3182.49
1.73095,3234.4
1.73275,3283.05
1.73455,3350.36
1.73635,3388.26
1.73815,3437.28
1.73995,3495.09
1.74175,3547.74
1.74355,3619.7
1.74535,3681.95
1.74715,3735.97
1.74895,3786.79
1.75075,3863.29
1.75255,3920.63
1.75435,3989.03
1.75615,4058.91
1.75795,4118.66
1.75975,4169.18
1.76155,4239.93
1.76335,4313.92
1.76515,4372.42
1.76695,4438.76
1.76875,4505.64
1.77055,4569.58
1.77235,4619.48
1.77415,4678.77
1.77596,4751.99
1.77776,4818.19
1.77956,4865.86
1.78136,4933.23
1.78316,5003.73
1.78496,5059.94
1.78676,5109.56
1.78856,5178.76
1.79036,5223.39
1.79216,5298.24
1.79396,5365.49
1.79576,5418.61
1.79756,5490.94
1.79936,5569.17
1.80116,5619.13
1.80296,5679.74
1.80476,5764.55
1.80656,5843.84
1.80836,5918.7
1.81016,6000.39
1.81196,6095.26
1.81376,6187.92
1.81556,6287.48
1.81736,6383.58
1.81916,6487.77
1.82096,6598.02
1.82276,6731.85
1.82456,6867.62
1.82637,7003.32
1.82817,7149.64
1.82997,7299.96
1.83177,7468.22
1.83357,7641.32
1.83537,7828.52
1.83717,8030.69
1.83897,8235.33
1.84077,8453.67
1.84257,8684.42
1.84437,8930.21
1.84617,9183.8
1.84797,9461.13
1.84977,9737.19
1.85157,10029.4
1.85337,10346.8
1.85517,10649.3
1.85697,10981.9
1.85877,11335.2
1.86057,11694.9
1.86237,12083.8
1.86417,12448
1.86597,12849.9
1.86777,13270.6
1.86957,13696.2
1.87137,14128.9
1.87317,14571.5
1.87497,15015.9
1.87678,15495.1
1.87858,15968.9
1.88038,16469.8
1.88218,16959.1
1.88398,17469.4
1.88578,17979.1
1.88758,18488.6
1.88938,19019
1.89118,19554.8
1.89298,20080.3
1.89478,20611.6
1.89658,21154.4
1.89838,21698.9
1.90018,22235.7
1.90198,22781.1
1.90378,23323.3
1.90558,23854
1.90738,24385.6
1.90918,24914.5
1.91098,25432.3
1.91278,25945.6
1.91458,26460.1
1.91638,26963.2
1.91818,27443
1.91998,27924.7
1.92178,28386.1
1.92358,28841.9
1.92538,29291.9
1.92719,29711.5
1.92899,30119.2
1.93079,30505.3
1.93259,30880
1.93439,31236.2
1.93619,31578.6
1.93799,31898.7
1.93979,32205.7
1.94159,32480.4
1.94339,32730.7
1.94519,32957.1
1.94699,33177.7
1.94879,33360.3
1.95059,33526.1
1.95239,33666.9
1.95419,33783.3
1.95599,33880.7
1.95779,33950.2
1.95959,33991.6
1.96139,34009.6
1.96319,33997.1
1.96499,33966
1.96679,33924.6
1.96859,33843.6
1.97039,33731.1
1.97219,33604.6
1.97399,33454.5
1.9758,33284.9
1.9776,33086.2
1.9794,32865.3
1.9812,32625.1
1.983,32362.5
1.9848,32084.1
1.9866,31773.8
1.9884,31450.8
1.9902,31102
1.992,30744.1
1.9938,30376.5
1.9956,29977.6
1.9974,29567.5
1.9992,29141.2
2.001,28706.3
2.0028,28246.5
2.0046,27776.9
2.0064,27302.8
2.0082,26817.3
2.01,26320
2.0118,25811.7
2.0136,25304.5
2.0154,24783.7
2.0172,24247
2.019,23712.4
2.0208,23176.4
2.0226,22634.4
2.02441,22091.5
2.02621,21550.6
2.02801,21005.1
2.02981,20454.9
2.03161,19906.6
2.03341,19361.7
2.03521,18821.8
2.03701,18285.3
2.03881,17746.2
2.04061,17215.1
2.04241,16689.6
2.04421,16169.3
2.04601,15656.9
2.04781,15144.7
2.04961,14646.2
2.05141,14160.8
2.05321,13673.3
2.05501,13203.6
2.05681,12735.6
2.05861,12275.6
2.06041,11834.4
2.06221,11399.6
2.06401,10974.6
2.06581,10555.8
2.06761,10160.9
2.06941,9767.9
2.07121,9391.81
2.07301,9024.92
2.07481,8666.54
2.07662,8326.54
2.07842,7981.83
2.08022,7659.12
2.08202,7364.35
2.08382,7067.71
2.08562,6780.59
2.08742,6506.73
2.08922,6242.88
2.09102,5994.63
2.09282,5756.1
2.09462,5523.62
2.09642,5309.52
2.09822,5103.41
2.10002,4903.58
2.10182,4723.66
2.10362,4548.27
2.10542,4380.07
2.10722,4222.59
2.10902,4076.8
2.11082,3939.43
2.11262,3807.31
2.11442,3686.76
2.11622,3568.27
2.11802,3462.73
2.11982,3370.41
2.12162,3277.88
2.12342,3192.61
2.12523,3112.23
2.12703,3037.65
2.12883,2968.67
2.13063,2910.44
2.13243,2855.13
2.13423,2803.31
2.13603,2758.49
2.13783,2714.86
2.13963,2673.25
2.14143,2638.55
2.14323,2605.97
2.14503,2579.13
2.14683,2556.07
2.14863,2530.86
2.15043,2512.26
2.15223,2493.13
2.15403,2474.19
2.15583,2463.76
2.15763,2449.19
2.15943,2436.28
2.16123,2431.94
2.16303,2423.78
2.16483,2413.05
2.16663,2406.42
2.16843,2400.42
2.17023,2392.07
2.17203,2388.99
2.17383,2385.36
2.17564,2384.23
2.17744,2378.34
2.17924,2372.63
2.18104,2368.57
2.18284,2367.78
2.18464,2363.67
2.18644,2359.74
2.18824,2354.49
2.19004,2348.07
2.19184,2344.13
2.19364,2340.87
2.19544,2335.54
2.19724,2330.84
2.19904,2326.8
2.20084,2320.77
2.20264,2313.27
2.20444,2304.62
2.20624,2296.98
2.20804,2292.7
2.20984,2288.11
2.21164,2273.89
2.21344,2270.36
2.21524,2258.38
2.21704,2252.63
2.21884,2246.38
2.22064,2232.97
2.22244,2224.32
2.22424,2215.11
2.22605,2205.88
2.22785,2197.64
2.22965,2186.29
2.23145,2178.91
2.23325,2163.14
2.23505,2153.51
2.23685,2144.35
2.23865,2136.1
2.24045,2124.92
2.24225,2112.57
2.24405,2102.6
2.24585,2089.78
2.24765,2081.24
2.24945,2068.69
2.25125,2058.8
2.25305,2049.34
2.25485,2039.03
2.25665,2031.14
2.25845,2021.49
2.26025,2009.37
2.26205,1997.22
2.26385,1988.79
2.26565,1979.4
2.26745,1970.31
2.26925,1965.28
2.27105,1954.97
2.27285,1949.11
2.27465,1940.67
2.27646,1935.47
2.27826,1932.08
2.28006,1919.5
2.28186,1914.6
2.28366,1913.88
2.28546,1912.84
2.28726,1911.36
2.28906,1908.45
2.29086,1903.46
2.29266,1906.31
2.29446,1907.55
2.29626,1911.86
2.29806,1916.96
2.29986,1919.28
2.30166,1931.26
2.30346,1936.73
2.30526,1947.43
2.30706,1958.04
2.30886,1966.12
2.31066,1983.24
2.31246,2003.03
2.31426,2019.84
2.31606,2041.22
2.31786,2065.71
2.31966,2089.19
2.32146,2116.1
2.32326,2147.82
2.32507,2175.89
2.32687,2213.42
2.32867,2248.04
2.33047,2287.98
2.33227,2328.27
2.33407,2375.6
2.33587,2424.34
2.33767,2474.38
2.33947,2528.54
2.34127,2584.85
2.34307,2645.88
2.34487,2708.1
2.34667,2773.56
2.34847,2838.99
2.35027,2912.17
2.35207,2987.07
2.35387,3067.84
2.35567,3150.49
2.35747,3234.25
2.35927,3322.56
2.36107,3412.58
2.36287,3506.06
2.36467,3603.6
2.36647,3705.69
2.36827,3808.56
2.37007,3916
2.37187,4026.15
2.37367,4140.67
2.37547,4252.77
2.37728,4368.25
2.37908,4489.96
2.38088,4614.14
2.38268,4743.57
2.38448,4872.45
2.38628,5001.75
2.38808,5134.79
2.38988,5267.55
2.39168,5406.56
2.39348,5542.99
2.39528,5683.83
2.39708,5825.09
2.39888,5968.92
2.40068,6112.96
2.40248,6257.71
2.40428,6404.8
2.40608,6550.52
2.40788,6698.8
2.40968,6846.95
2.41148,6994.6
2.41328,7141.8
2.41508,7287.14
2.41688,7434.76
2.41868,7577.52
2.42048,7724.84
2.42228,7868.24
2.42408,8014.01
2.42589,8153.8
2.42769,8294.15
2.42949,8431.28
2.43129,8566.36
2.43309,8700.35
2.43489,8829.41
2.43669,8954.33
2.43849,9082.63
2.44029,9201.97
2.44209,9319.99
2.44389,9436.13
2.44569,9547.83
2.44749,9656.49
2.44929,9757.57
2.45109,9856.17
2.45289,9950.39
2.45469,10040.9
2.45649,10125.8
2.45829,10204.7
2.46009,10279.7
2.46189,10350.6
2.46369,10415.1
2.46549,10473.3
2.46729,10528.5
2.46909,10578.3
2.47089,10619.9
2.47269,10655.1
2.47449,10688.2
2.4763,10710.4
2.4781,10728.9
2.4799,10743.7
2.4817,10752.2
2.4835,10752.7
2.4853,10747.6
2.4871,10736.4
2.4889,10719.7
2.4907,10695.7
2.4925,10667.2
2.4943,10631.4
2.4961,10589.2
2.4979,10545.5
2.4997,10494
2.5015,10435.5
2.5033,10372.9
2.5051,10301.6
2.5069,10225.4
2.5087,10146.4
2.5105,10063
2.5123,9972.1
2.5141,9877.92
2.5159,9781.46
2.5177,9677.06
2.5195,9569.89
2.5213,9455.51
2.5231,9340.36
2.5249,9219.8
2.52671,9094.7
2.52851,8970.39
2.53031,8836.88
2.53211,8706.12
2.53391,8568.64
2.53571,8430.52
2.53751,8292.82
2.53931,8148.8
2.54111,8003.37
2.54291,7855.86
2.54471,7707.33
2.54651,7558.8
2.54831,7405.52
2.55011,7254.69
2.55191,7103.31
2.55371,6949.37
2.55551,6798.76
2.55731,6646.9
2.55911,6492.86
2.56091,6340.85
2.56271,6187.73
2.56451,6037.03
2.56631,5886.87
2.56811,5737.05
2.56991,5589.34
2.57171,5442.73
2.57351,5297.66
2.57531,5155.75
2.57712,5016.06
2.57892,4874.22
2.58072,4736.76
2.58252,4601.42
2.58432,4468.31
2.58612,4338.57
2.58792,4211.65
2.58972,4087.54
2.59152,3964.22
2.59332,3843.96
2.59512,3729.61
2.59692,3613
2.59872,3500.77
2.60052,3395.66
2.60232,3290.56
2.60412,3188.88
2.60592,3089.32
2.60772,2992.97
2.60952,2901.73
2.61132,2812.94
2.61312,2727.16
2.61492,2642.89
2.61672,2562.75
2.61852,2484.33
2.62032,2409.8
2.62212,2340.19
2.62392,2272.82
2.62573,2206.91
2.62753,2144.58
2.62933,2087.89
2.63113,2030.58
2.63293,1974.35
2.63473,1925.02
2.63653,1876.62
2.63833,1830.31
2.64013,1786.63
2.64193,1746.41
2.64373,1708.57
2.64553,1674.88
2.64733,1640.6
2.64913,1609.92
2.65093,1581.39
2.65273,1554.44
2.65453,1531.57
2.65633,1509.25
2.65813,1488.68
2.65993,1469.89
2.66173,1455.59
2.66353,1442.88
2.66533,1430.4
2.66713,1421.73
2.66893,1413.53
2.67073,1408.1
2.67253,1403.22
2.67434,1400.12
2.67614,1400.61
2.67794,1403.02
2.67974,1404.55
2.68154,1410.48
2.68334,1417.37
2.68514,1425.59
2.68694,1433.93
2.68874,1446.7
2.69054,1462.03
2.69234,1477.28
2.69414,1491.82
2.69594,1510.17
2.69774,1530.01
2.69954,1550.05
2.70134,1574.74
2.70314,1600.24
2.70494,1627.03
2.70674,1653.76
2.70854,1681.63
2.71034,1711.94
2.71214,1744.55
2.71394,1776.41
2.71574,1809.93
2.71754,1849.19
2.71934,1885.68
2.72114,1923.57
2.72294,1961.83
2.72474,2001.66
2.72655,2043.88
2.72835,2086.32
2.73015,2127.77
2.73195,2173.61
2.73375,2218.08
2.73555,2263.79
2.73735,2309.27
2.73915,2355.9
2.74095,2402.32
2.74275,2449.39
2.74455,2497.76
2.74635,2547.06
2.74815,2593.24
2.74995,2640.24
2.75175,2686.86
2.75355,2735.11
2.75535,2781.43
2.75715,2828.27
2.75895,2876.63
2.76075,2920.77
2.76255,2966.63
2.76435,3007.7
2.76615,3051.14
2.76795,3091.53
2.76975,3132.39
2.77155,3173.66
2.77335,3211.49
2.77516,3248.02
2.77696,3284.04
2.77876,3316.67
2.78056,3348.19
2.78236,3377.61
2.78416,3406.18
2.78596,3433.52
2.78776,3458.7
2.78956,3482.14
2.79136,3501.99
2.79316,3518.8
2.79496,3536.11
2.79676,3550.63
2.79856,3563.49
2.80036,3572.89
2.80216,3580.74
2.80396,3587.94
2.80576,3590.46
2.80756,3590.78
2.80936,3587.95
2.81116,3586.22
2.81296,3582.51
2.81476,3574.57
2.81656,3564.32
2.81836,3554.53
2.82016,3540.71
2.82196,3524.5
2.82376,3506.35
2.82557,3487.67
2.82737,3466.48
2.82917,3444.59
2.83097,3420.98
2.83277,3394.08
2.83457,3365.28
2.83637,3336.7
2.83817,3306.98
2.83997,3275.19
2.84177,3242.88
2.84357,3208.6
2.84537,3174.32
2.84717,3137.95
2.84897,3099.37
2.85077,3062.61
2.85257,3023.18
2.85437,2984.91
2.85617,2945.11
2.85797,2906.38
2.85977,2864.68
2.86157,2822.42
2.86337,2783.37
2.86517,2740.97
2.86697,2697.29
2.86877,2654.87
2.87057,2612.74
2.87237,2571.38
2.87417,2529.82
2.87598,2487.76
2.87778,2445.57
2.87958,2402.99
2.88138,2361.9
2.88318,2321.21
2.88498,2280.4
2.88678,2239.53
2.88858,2198.18
2.89038,2157.7
2.89218,2119.04
2.89398,2078.48
2.89578,2038.18
2.89758,1999.17
2.89938,1963.25
2.90118,1925.55
2.90298,1886.65
2.90478,1850.07
2.90658,1814.01
2.90838,1776.98
2.91018,1739.55
2.91198,1705.37
2.91378,1670.51
2.91558,1636.2
2.91738,1601.75
2.91918,1568.37
2.92098,1533.91
2.92278,1500.05
2.92458,1467.53
2.92639,1435.83
2.92819,1403.91
2.92999,1374.37
2.93179,1343.13
2.93359,1310.61
2.93539,1281.51
2.93719,1249.34
2.93899,1219.92
2.94079,1192.52
2.94259,1163.28
2.94439,1135.16
2.94619,1107.83
2.94799,1081.15
2.94979,1055.12
2.95159,1027.51
2.95339,1002.04
2.95519,975.897
2.95699,951.402
2.95879,927.331
2.96059,903.833
2.96239,881.142
2.96419,858.068
2.96599,836.729
2.96779,815.574
2.96959,795.471
2.97139,776.271
2.97319,757.081
2.975,739.257
2.9768,719.834
2.9786,702.304
2.9804,687.004
2.9822,671.146
2.984,657.266
2.9858,643.239
2.9876,630.924
2.9894,618.556
2.9912,606.856
2.993,595.847
2.9948,586.304
2.9966,577.561
2.9984,569.006
3.0002,561.264
3.002,555.4
3.0038,550.968
3.0056,544.472
3.0074,540.195
3.0092,536.858
3.011,532.45
3.0128,531.476
3.0146,530.811
3.0164,530.494
3.0182,530.92
3.02,532.942
3.0218,532.873
3.0236,534.174
3.0254,535.825
3.02721,539.303
3.02901,543.656
3.03081,547.628
3.03261,552.547
3.03441,556.295
3.03621,560.841
3.03801,568.053
3.03981,574.517
3.04161,580.252
3.04341,586.509
3.04521,593.135
3.04701,599.87
3.04881,606.495
3.05061,614.459
3.05241,619.923
3.05421,628.31
3.05601,636.543
3.05781,643.549
3.05961,651.073
3.06141,658.492
3.06321,665.429
3.06501,672.36
3.06681,677.5
3.06861,685.513
3.07041,691.934
3.07221,699.225
3.07401,705.906
3.07582,712.378
3.07762,716.555
3.07942,722.602
3.08122,728.049
3.08302,732.536
3.08482,737.538
3.08662,742.743
3.08842,746.969
3.09022,749.615
3.09202,753.092
3.09382,755.611
3.09562,759.487
3.09742,762.391
3.09922,763.835
3.10102,764.727
3.10282,767.276
3.10462,767.548
3.10642,769.037
3.10822,770.974
3.11002,769.987
3.11182,769.227
3.11362,769.234
3.11542,768.753
3.11722,765.919
3.11902,764.561
3.12082,762.376
3.12262,761.04
3.12442,759.646
3.12623,757.52
3.12803,754.205
3.12983,749.856
3.13163,746.846
3.13343,743.922
3.13523,740.325
3.13703,735.302
3.13883,731.332
3.14063,725.672
3.14243,721.031
3.14423,716.95
3.14603,712.415
3.14783,706.876
3.14963,700.841
3.15143,695.63
3.15323,689.812
3.15503,683.599
3.15683,678.142
3.15863,670.918
3.16043,664.95
3.16223,659.218
3.16403,652.876
3.16583,646.628
3.16763,639.126
3.16943,632.994
3.17123,626.216
3.17303,619.443
3.17483,612.625
3.17664,606.48
3.17844,599.025
3.18024,592.26
3.18204,585.508
3.18384,579.216
3.18564,572.069
3.18744,564.522
3.18924,557.741
3.19104,551.572
3.19284,545.328
3.19464,538.562
3.19644,532.154
3.19824,524.874
3.20004,518.857
3.20184,511.787
3.20364,505.858
3.20544,500.256
3.20724,492.946
3.20904,486.388
3.21084,480.55
3.21264,475.665
3.21444,469.485
3.21624,463.462
3.21804,458.245
3.21984,452.751
3.22164,447.433
3.22344,442.023
3.22524,437.014
3.22705,429.614
3.22885,424.943
3.23065,421.157
3.23245,416.746
3.23425,412.106
3.23605,406.782
3.23785,402.625
3.23965,398.316
3.24145,394.716
3.24325,390.386
3.24505,385.755
3.24685,381.963
3.24865,378.675
3.25045,375.797
3.25225,371.048
3.25405,368.47
3.25585,364.926
3.25765,361.645
3.25945,358.759
3.26125,357.599
3.26305,354.244
3.26485,351.528
3.26665,349.656
3.26845,347.399
3.27025,345.573
3.27205,343.349
3.27385,341.353
3.27566,339.835
3.27746,339.201
3.27926,337.566
3.28106,336.884
3.28286,335.604
3.28466,334.354
3.28646,334.011
3.28826,334.002
3.29006,334.06
3.29186,333.946
3.29366,333.367
3.29546,333.446
3.29726,334.732
3.29906,334.615
3.30086,334.909
3.30266,335.789
3.30446,337.812
3.30626,339.055
3.30806,339.673
3.30986,340.576
3.31166,342.398
3.31346,343.589
3.31526,344.643
3.31706,345.911
3.31886,348.448
3.32066,350.742
3.32246,353.088
3.32426,354.892
3.32607,356.347
3.32787,358.008
3.32967,359.16
3.33147,363.423
3.33327,365.326
3.33507,366.763
3.33687,368.513
3.33867,370.834
3.34047,372.468
3.34227,374.604
3.34407,375.897
3.34587,377.27
3.34767,379.716
3.34947,381.323
3.35127,382.184
3.35307,383.678
3.35487,384.06
3.35667,386.403
3.35847,387.652
3.36027,387.567
3.36207,388.124
3.36387,387.965
3.36567,389.656
3.36747,389.213
3.36927,389.178
3.37107,389.097
3.37287,388.644
3.37467,388.855
3.37648,387.553
3.37828,387.225
3.38008,386.934
3.38188,385.598
3.38368,383.813
3.38548,382.533
3.38728,381.582
3.38908,381.443
3.39088,380.032
3.39268,377.556
3.39448,375.999
3.39628,374.699
3.39808,374.035
3.39988,372.551
3.40168,371.351
3.40348,369.049
3.40528,367.996
3.40708,367.408
3.40888,367.237
3.41068,365.676
3.41248,364.003
3.41428,363.692
3.41608,364.089
3.41788,364.022
3.41968,363.626
3.42148,364.385
3.42328,366.105
3.42509,366.314
3.42689,367.481
3.42869,368.174
3.43049,370.198
3.43229,372.951
3.43409,376.7
3.43589,380.027
3.43769,383.15
3.43949,386.482
3.44129,390.567
3.44309,395.301
3.44489,400.61
3.44669,406.858
3.44849,411.933
3.45029,417.978
3.45209,424.918
3.45389,432.08
3.45569,439.616
3.45749,447.094
3.45929,455.207
3.46109,464.575
3.46289,473.601
3.46469,482.974
3.46649,491.814
3.46829,501.199
3.47009,511.671
3.47189,522.952
3.47369,533.258
3.4755,543.221
3.4773,554.04
3.4791,565.208
3.4809,577.17
3.4827,587.559
3.4845,598.939
3.4863,610.317
3.4881,621.425
3.4899,632.636
3.4917,644.209
3.4935,655.353
3.4953,666.751
3.4971,677.32
3.4989,687.296
3.5007,698.145
3.5025,708.415
3.5043,718.711
3.5061,728.81
3.5079,737.995
3.5097,747.459
3.5115,755.091
3.5133,764.053
3.5151,773.781
3.5169,781.414
3.5187,788.292
3.5205,795.952
3.5223,803.311
3.5241,809.234
3.52591,815.668
3.52771,821.805
3.52951,827.863
3.53131,834.055
3.53311,839.397
3.53491,844.553
3.53671,849.296
3.53851,854.046
3.54031,859.755
3.54211,864.528
3.54391,869.323
3.54571,873.537
3.54751,878.862
3.54931,885.096
3.55111,891.126
3.55291,896.822
3.55471,903.115
3.55651,910.882
3.55831,916.888
3.56011,925.828
3.56191,934.757
3.56371,944.688
3.56551,955.672
3.56731,968.171
3.56911,981.986
3.57091,996.039
3.57271,1011.17
3.57451,1028.33
3.57632,1046.2
3.57812,1066.88
3.57992,1089.02
3.58172,1113.39
3.58352,1139.11
3.58532,1167.17
3.58712,1198.38
3.58892,1231.5
3.59072,1266.31
3.59252,1302.94
3.59432,1342.54
3.59612,1385.5
3.59792,1431.17
3.59972,1479.61
3.60152,1530.68
3.60332,1585.97
3.60512,1643.8
3.60692,1704.2
3.60872,1767.01
3.61052,1834.19
3.61232,1904.81
3.61412,1977.62
3.61592,2056.16
3.61772,2136.43
3.61952,2220.3
3.62132,2307.85
3.62312,2398.44
3.62492,2493.88
3.62673,2591.74
3.62853,2691.87
3.63033,2796.69
3.63213,2905.06
3.63393,3016.48
3.63573,3130.5
3.63753,3247.86
3.63933,3368.99
3.64113,3493.69
3.64293,3620.12
3.64473,3749.77
3.64653,3881.54
3.64833,4016.23
3.65013,4153.67
3.65193,4292.93
3.65373,4434.69
3.65553,4578.42
3.65733,4724.16
3.65913,4871.69
3.66093,5020.4
3.66273,5169.75
3.66453,5320.21
3.66633,5471.3
3.66813,5624.3
3.66993,5777.45
3.67173,5930.15
3.67353,6084.41
3.67533,6236.87
3.67714,6389.72
3.67894,6541.41
3.68074,6692.07
3.68254,6841.76
3.68434,6990.11
3.68614,7136.36
3.68794,7280.73
3.68974,7422.91
3.69154,7563.24
3.69334,7700.62
3.69514,7836.48
3.69694,7968.19
3.69874,8096.22
3.70054,8221
3.70234,8340.68
3.70414,8457.43
3.70594,8570.46
3.70774,8678.47
3.70954,8782.6
3.71134,8882.51
3.71314,8976.34
3.71494,9065.09
3.71674,9149.09
3.71854,9226.25
3.72034,9297.38
3.72214,9363.88
3.72394,9426.23
3.72575,9481.93
3.72755,9529.67
3.72935,9571.93
3.73115,9609.29
3.73295,9638.56
3.73475,9662.56
3.73655,9680.53
3.73835,9691.82
3.74015,9696.09
3.74195,9694.03
3.74375,9686.52
3.74555,9671.78
3.74735,9651.41
3.74915,9624.17
3.75095,9590.31
3.75275,9552.26
3.75455,9507.47
3.75635,9456.07
3.75815,9398.71
3.75995,9335.87
3.76175,9268.1
3.76355,9195.48
3.76535,9117.78
3.76715,9034.11
3.76895,8945.9
3.77075,8853.61
3.77255,8756.31
3.77435,8654.35
3.77616,8548.69
3.77796,8439.94
3.77976,8327.8
3.78156,8212.37
3.78336,8093.95
3.78516,7972.73
3.78696,7848.58
3.78876,7723.04
3.79056,7595.24
3.79236,7464.78
3.79416,7334.02
3.79596,7201.17
3.79776,7068.07
3.79956,6934.63
3.80136,6800.56
3.80316,6665.16
3.80496,6531.52
3.80676,6398.13
3.80856,6264.81
3.81036,6132.27
3.81216,6001.33
3.81396,5871.45
3.81576,5742.28
3.81756,5616.12
3.81936,5492.43
3.82116,5370.7
3.82296,5250.88
3.82476,5133.97
3.82657,5020.17
3.82837,4907.91
3.83017,4798.65
3.83197,4694.08
3.83377,4592.25
3.83557,4494.06
3.83737,4399.44
3.83917,4308.6
3.84097,4222.53
3.84277,4139.55
3.84457,4058.65
3.84637,3983.24
3.84817,3912.66
3.84997,3845.86
3.85177,3782.52
3.85357,3723.46
3.85537,3668.43
3.85717,3617.26
3.85897,3570
3.86077,3526.85
3.86257,3487.61
3.86437,3452.17
3.86617,3421.34
3.86797,3393.45
3.86977,3368.59
3.87157,3348.51
3.87337,3331.03
3.87517,3315.88
3.87698,3306.16
3.87878,3298.56
3.88058,3293.6
3.88238,3291.32
3.88418,3291.23
3.88598,3293.46
3.88778,3298.14
3.88958,3305.44
3.89138,3314.66
3.89318,3325.49
3.89498,3337.77
3.89678,3351.5
3.89858,3366.77
3.90038,3382.83
3.90218,3399.82
3.90398,3417.56
3.90578,3435.93
3.90758,3455.04
3.90938,3474.16
3.91118,3492.67
3.91298,3511.39
3.91478,3530.15
3.91658,3548.28
3.91838,3566.43
3.92018,3583.71
3.92198,3599.14
3.92378,3614.33
3.92559,3628.7
3.92739,3642
3.92919,3652.7
3.93099,3663.26
3.93279,3672.9
3.93459,3680.44
3.93639,3685.17
3.93819,3689.13
3.93999,3691.56
3.94179,3691.7
3.94359,3689.14
3.94539,3685.43
3.94719,3680.01
3.94899,3671.86
3.95079,3662.05
3.95259,3650.86
3.95439,3637.52
3.95619,3621.23
3.95799,3604.07
3.95979,3583.82
3.96159,3561.81
3.96339,3538.62
3.96519,3513.29
3.96699,3485.97
3.96879,3458.32
3.97059,3427.68
3.97239,3394.78
3.97419,3360.89
3.976,3326.28
3.9778,3289.5
3.9796,3251.64
3.9814,3213.44
3.9832,3172.29
3.985,3131.68
3.9868,3090.61
3.9886,3048.01
3.9904,3004.4
3.9922,2960.13
3.994,2915.95
3.9958,2871.47
3.9976,2826.31
3.9994,2781.2
4.0012,2736.39
4.003,2691.61
4.0048,2646.02
4.0066,2601.69
4.0084,2558.36
4.0102,2514.59
4.012,2470.87
4.0138,2428.77
4.0156,2386.65
4.0174,2346.1
4.0192,2306.43
4.021,2267.61
4.0228,2230.59
4.0246,2193.47
4.02641,2158.05
4.02821,2123.76
4.03001,2090.74
4.03181,2059.27
4.03361,2029.36
4.03541,2000.87
4.03721,1974.23
4.03901,1948.16
4.04081,1924.65
4.04261,1902.03
4.04441,1881.47
4.04621,1861.86
4.04801,1844.38
4.04981,1828.78
4.05161,1814.15
4.05341,1800.45
4.05521,1788.95
4.05701,1779.8
4.05881,1771.51
4.06061,1763.65
4.06241,1757.89
4.06421,1754.63
4.06601,1751.29
4.06781,1749.11
4.06961,1748.8
4.07141,1749.29
4.07321,1751.59
4.07502,1755.21
4.07682,1758.5
4.07862,1763.4
4.08042,1769.56
4.08222,1775.21
4.08402,1781.89
4.08582,1789.65
4.08762,1798.46
4.08942,1807.42
4.09122,1816.83
4.09302,1825.67
4.09482,1835.43
4.09662,1844.85
4.09842,1854.54
4.10022,1865.59
4.10202,1876.05
4.10382,1885.3
4.10562,1894.42
4.10742,1904.52
4.10922,1913.21
4.11102,1922.16
4.11282,1931.1
4.11462,1938.74
4.11642,1945.91
4.11822,1952.29
4.12002,1958.23
4.12182,1963.28
4.12362,1967.44
4.12543,1971.51
4.12723,1974.82
4.12903,1977.05
4.13083,1978.11
4.13263,1978
4.13443,1977.51
4.13623,1975.66
4.13803,1971.89
4.13983,1968.34
4.14163,1964.52
4.14343,1959.2
4.14523,1952.54
4.14703,1944.59
4.14883,1935.16
4.15063,1925.29
4.15243,1914.77
4.15423,1903.84
4.15603,1890.93
4.15783,1877.29
4.15963,1863.1
4.16143,1847.89
4.16323,1831.85
4.16503,1814.97
4.16683,1797.08
4.16863,1779.06
4.17043,1760.18
4.17223,1740.75
4.17404,1720.43
4.17584,1699.43
4.17764,1677.84
4.17944,1655.66
4.18124,1633.61
4.18304,1611.66
4.18484,1590.21
4.18664,1567.09
4.18844,1543.37
4.19024,1519.3
4.19204,1496.83
4.19384,1473.17
4.19564,1450.01
4.19744,1426.97
4.19924,1403.95
4.20104,1381.05
4.20284,1358.83
4.20464,1336.38
4.20644,1313.63
4.20824,1291.67
4.21004,1271.09
4.21184,1249.99
4.21364,1229.66
4.21544,1210.42
4.21724,1191.33
4.21904,1172.27
4.22084,1154.26
4.22264,1137
4.22444,1120.56
4.22624,1105.16
4.22805,1090.14
4.22985,1076.01
4.23165,1062.51
4.23345,1048.95
4.23525,1036.49
4.23705,1025.76
4.23885,1015.93
4.24065,1007.22
4.24245,998.542
4.24425,990.681
4.24605,983.989
4.24785,976.967
4.24965,972.042
4.25145,968.583
4.25325,965.682
4.25505,963.149
4.25685,963.004
4.25865,962.013
4.26045,962.052
4.26225,963.062
4.26405,964.501
4.26585,967.919
4.26765,972.221
4.26945,977.132
4.27125,982.979
4.27305,989.36
4.27485,996.265
4.27666,1004.61
4.27846,1014.33
4.28026,1024.22
4.28206,1035.29
4.28386,1047.25
4.28566,1059.75
4.28746,1072.96
4.28926,1087.24
4.29106,1102.55
4.29286,1118.83
4.29466,1136.59
4.29646,1154.57
4.29826,1172.97
4.30006,1192.23
4.30186,1213.02
4.30366,1234.29
4.30546,1256.44
4.30726,1279.21
4.30906,1303.61
4.31086,1328.62
4.31266,1354.75
4.31446,1381.6
4.31626,1408.69
4.31806,1437.12
4.31986,1465.36
4.32166,1495.3
4.32346,1526.32
4.32526,1558.2
4.32707,1590.9
4.32887,1623.51
4.33067,1657.6
4.33247,1691.14
4.33427,1726.03
4.33607,1762.45
4.33787,1798.52
4.33967,1835.24
4.34147,1872.33
4.34327,1909.81
4.34507,1948.14
4.34687,1986.65
4.34867,2025.48
4.35047,2064.8
4.35227,2104
4.35407,2142.99
4.35587,2182.19
4.35767,2221.59
4.35947,2261.57
4.36127,2300.67
4.36307,2339.25
4.36487,2378
4.36667,2416.03
4.36847,2453.4
4.37027,2491.08
4.37207,2528.9
4.37387,2564.44
4.37568,2599.38
4.37748,2633.66
4.37928,2666.85
4.38108,2700.07
4.38288,2731.9
4.38468,2762.84
4.38648,2792.29
4.38828,2820.48
4.39008,2847.18
4.39188,2872.76
4.39368,2897.48
4.39548,2919.67
4.39728,2941.09
4.39908,2960.63
4.40088,2979.93
4.40268,2996.19
4.40448,3010.93
4.40628,3024.38
4.40808,3036.69
4.40988,3047.16
4.41168,3055.62
4.41348,3062.79
4.41528,3067.7
4.41708,3071.28
4.41888,3073.85
4.42068,3074.7
4.42248,3073.81
4.42428,3070.99
4.42609,3067.62
4.42789,3062.67
4.42969,3056.04
4.43149,3047.44
4.43329,3037.77
4.43509,3027.61
4.43689,3016.63
4.43869,3004.13
4.44049,2991.45
4.44229,2976.86
4.44409,2961.84
4.44589,2946.27
4.44769,2929.7
4.44949,2912.77
4.45129,2896.01
4.45309,2878.03
4.45489,2860.79
4.45669,2843.78
4.45849,2825
4.46029,2807.22
4.46209,2790.09
4.46389,2772.41
4.46569,2755.45
4.46749,2738.96
4.46929,2722.86
4.47109,2706.73
4.47289,2693.15
4.4747,2679.25
4.4765,2666.14
4.4783,2654.05
4.4801,2643.19
4.4819,2633.53
4.4837,2625.19
4.4855,2617.84
4.4873,2611.94
4.4891,2606.83
4.4909,2603.7
4.4927,2602.39
4.4945,2602.63
4.4963,2603.75
4.4981,2606.94
4.4999,2610.86
4.5017,2617.33
4.5035,2626
4.5053,2635.91
4.5071,2647.22
4.5089,2660.75
4.5107,2675.94
4.5125,2692.79
4.5143,2711.17
4.5161,2732.09
4.5179,2754.68
4.5197,2778.84
4.5215,2805.18
4.5233,2832.68
4.5251,2862.2
4.52691,2893.45
4.52871,2926.38
4.53051,2960.63
4.53231,2996.93
4.53411,3035.56
4.53591,3074.93
4.53771,3115.55
4.53951,3158.11
4.54131,3202.86
4.54311,3247.62
4.54491,3295.01
4.54671,3344.08
4.54851,3393.62
4.55031,3444.37
4.55211,3496.62
4.55391,3549.72
4.55571,3604.51
4.55751,3660.46
4.55931,3716.7
4.56111,3774.12
4.56291,3832.07
4.56471,3890.64
4.56651,3950.83
4.56831,4011.54
4.57011,4072.02
4.57191,4133.39
4.57371,4195.92
4.57551,4258.68
4.57732,4321.25
4.57912,4383.18
4.58092,4446.23
4.58272,4509.28
4.58452,4571.91
4.58632,4634.9
4.58812,4697.24
4.58992,4759.41
4.59172,4821.06
4.59352,4882.3
4.59532,4942.67
4.59712,5002.32
4.59892,5060.89
4.60072,5118.41
4.60252,5176.28
4.60432,5232.93
4.60612,5286.65
4.60792,5340.22
4.60972,5392.44
4.61152,5442.51
4.61332,5491.26
4.61512,5539.25
4.61692,5585.08
4.61872,5627.98
4.62052,5669.77
4.62232,5709.34
4.62412,5746.67
4.62593,5781.39
4.62773,5814.29
4.62953,5845.22
4.63133,5873.39
4.63313,5898.9
4.63493,5921.54
4.63673,5941.53
4.63853,5959.21
4.64033,5973.98
4.64213,5986.14
4.64393,5995.35
4.64573,6001.65
4.64753,6004.32
4.64933,6004.23
4.65113,6001.79
4.65293,5996.31
4.65473,5986.98
4.65653,5975.11
4.65833,5960.4
4.66013,5942.51
4.66193,5921.65
4.66373,5897.97
4.66553,5870.34
4.66733,5839.89
4.66913,5807.05
4.67093,5771.02
4.67273,5732.83
4.67453,5691.22
4.67634,5646.73
4.67814,5600.14
4.67994,5549.98
4.68174,5496.91
4.68354,5442.59
4.68534,5385.81
4.68714,5326.7
4.68894,5264.48
4.69074,5200.58
4.69254,5134.27
4.69434,5066.08
4.69614,4995.86
4.69794,4924.49
4.69974,4851.05
4.70154,4776.08
4.70334,4699.75
4.70514,4621.06
4.70694,4541.79
4.70874,4462.13
4.71054,4381.28
4.71234,4299.16
4.71414,4215.57
4.71594,4131.78
4.71774,4047.84
4.71954,3963.85
4.72134,3878.48
4.72314,3792.83
4.72495,3707.77
4.72675,3622.45
4.72855,3537.39
4.73035,3452.57
4.73215,3367.58
4.73395,3283.16
4.73575,3199.1
4.73755,3115.45
4.73935,3033.69
4.74115,2951.68
4.74295,2870.76
4.74475,2791.63
4.74655,2713.47
4.74835,2635.47
4.75015,2559.25
4.75195,2484.06
4.75375,2409.87
4.75555,2338.04
4.75735,2267.4
4.75915,2197.99
4.76095,2129.92
4.76275,2064.2
4.76455,1999.98
4.76635,1936.88
4.76815,1876.6
4.76995,1817.3
4.77175,1760.03
4.77355,1704.43
4.77536,1651.36
4.77716,1600.02
4.77896,1549.89
4.78076,1502.59
4.78256,1456.57
4.78436,1412.94
4.78616,1371.28
4.78796,1330.83
4.78976,1292.89
4.79156,1256.97
4.79336,1221.83
4.79516,1189.37
4.79696,1158.99
4.79876,1130.6
4.80056,1103.46
4.80236,1078.55
4.80416,1054.94
4.80596,1033.32
4.80776,1013.31
4.80956,994.578
4.81136,977.711
4.81316,962.458
4.81496,948.862
4.81676,936.648
4.81856,926.031
4.82036,916.345
4.82216,907.545
4.82397,900.161
4.82577,894.734
4.82757,890.143
4.82937,886.884
4.83117,884.165
4.83297,882.783
4.83477,882.033
4.83657,882.32
4.83837,883.904
4.84017,885.631
4.84197,887.801
4.84377,891.233
4.84557,895.086
4.84737,900.018
4.84917,904.726
4.85097,909.72
4.85277,915.541
4.85457,922.065
4.85637,929.171
4.85817,936.047
4.85997,943.289
4.86177,949.918
4.86357,957.495
4.86537,965.104
4.86717,973.311
4.86897,981.08
4.87077,988.89
4.87257,996.346
4.87437,1004.59
4.87617,1012.55
4.87798,1020.28
4.87978,1027.43
4.88158,1035.11
4.88338,1042.06
4.88518,1050.27
4.88698,1057.45
4.88878,1063.9
4.89058,1071.19
4.89238,1077.59
4.89418,1084.72
4.89598,1091.62
4.89778,1096.96
4.89958,1102.29
4.90138,1107.95
4.90318,1114.04
4.90498,1119.2
4.90678,1124.47
4.90858,1129.67
4.91038,1134.23
4.91218,1138.91
4.91398,1143.72
4.91578,1148.27
4.91758,1151.37
4.91938,1155.73
4.92118,1160.19
4.92298,1163.8
4.92478,1167.06
4.92659,1169.83
4.92839,1173.9
4.93019,1177.07
4.93199,1180.01
4.93379,1182.79
4.93559,1185.15
4.93739,1188.11
4.93919,1190.85
4.94099,1193.58
4.94279,1195.9
4.94459,1198.01
4.94639,1199.79
4.94819,1202.43
4.94999,1204.36
4.95179,1206.35
4.95359,1207.9
4.95539,1209.5
4.95719,1210.68
4.95899,1212.41
4.96079,1213.91
4.96259,1214.19
4.96439,1215.35
4.96619,1216.73
4.96799,1217.12
4.96979,1217.04
4.97159,1217.1
4.97339,1217.01
4.97519,1217.28
4.977,1217.23
4.9788,1217.26
4.9806,1216.32
4.9824,1214.77
4.9842,1213.1
4.986,1211.37
4.9878,1209.93
4.9896,1208.02
4.9914,1205.99
4.9932,1202.63
4.995,1199
4.9968,1196.09
4.9986,1192.76
5.0004,1188.7
5.0022,1184.79
5.004,1179.96
5.0058,1175.26
5.0076,1170.12
5.0094,1164.29
5.0112,1158.42
5.013,1151.81
5.0148,1145.69
5.0166,1138.94
5.0184,1130.87
5.0202,1123.37
5.022,1115.91
5.0238,1107.66
5.02561,1099.21
5.02741,1090.27
5.02921,1081.23
5.03101,1071.5
5.03281,1061.76
5.03461,1052.37
5.03641,1042.05
5.03821,1032.08
5.04001,1021.25
5.04181,1010.44
5.04361,999.072
5.04541,987.941
5.04721,977.25
5.04901,965.799
5.05081,954.099
5.05261,942.382
5.05441,930.046
5.05621,917.949
5.05801,906.446
5.05981,894.878
5.06161,882.936
5.06341,871.631
5.06521,859.13
5.06701,846.638
5.06881,835.152
5.07061,823.323
5.07241,811.907
5.07421,800.058
5.07601,789.297
5.07782,777.395
5.07962,765.107
5.08142,754.715
5.08322,744.063
5.08502,733.119
5.08682,722.5
5.08862,712.219
5.09042,702.401
5.09222,692.796
5.09402,683.099
5.09582,673.765
5.09762,664.379
5.09942,654.899
5.10122,646.316
5.10302,638.543
5.10482,630.08
5.10662,622.072
5.10842,614.898
5.11022,608.201
5.11202,601.02
5.11382,594.296
5.11562,588.306
5.11742,582.795
5.11922,576.855
5.12102,571.262
5.12282,566.738
5.12462,561.765
5.12643,557.388
5.12823,552.813
5.13003,549.456
5.13183,546.351
5.13363,543.016
5.13543,539.643
5.13723,537.593
5.13903,534.657
5.14083,532.399
5.14263,530.556
5.14443,529.127
5.14623,528.081
5.14803,526.941
5.14983,525.914
5.15163,525.425
5.15343,524.915
5.15523,524.755
5.15703,524.422
5.15883,524.607
5.16063,524.941
5.16243,525.414
5.16423,525.979
5.16603,526.644
5.16783,527.163
5.16963,528.001
5.17143,528.954
5.17323,530.305
5.17503,531.911
5.17684,532.971
5.17864,533.817
5.18044,535.826
5.18224,537.434
5.18404,538.306
5.18584,539.696
5.18764,541.032
5.18944,542.376
5.19124,543.348
5.19304,544.807
5.19484,546.458
5.19664,547.142
5.19844,547.7
5.20024,548.947
5.20204,550.153
5.20384,551.345
5.20564,551.793
5.20744,552.287
5.20924,552.505
5.21104,552.54
5.21284,552.959
5.21464,553.052
5.21644,552.51
5.21824,552.649
5.22004,552.725
5.22184,552.08
5.22364,551.697
5.22544,550.943
5.22725,549.066
5.22905,548.484
5.23085,548.141
5.23265,546.816
5.23445,545.148
5.23625,543.841
5.23805,542.335
5.23985,540.588
5.24165,538.849
5.24345,537.969
5.24525,535.805
5.24705,533.478
5.24885,532.139
5.25065,530.555
5.25245,528.357
5.25425,526.949
5.25605,524.884
5.25785,523.748
5.25965,522.146
5.26145,521.008
5.26325,519.792
5.26505,518.683
5.26685,517.85
5.26865,517.347
5.27045,517.312
5.27225,517.31
5.27405,516.997
5.27586,517.357
5.27766,518.702
5.27946,519.892
5.28126,521.268
5.28306,523.09
5.28486,525.662
5.28666,529.313
5.28846,532.715
5.29026,537.088
5.29206,541.373
5.29386,546.187
5.29566,551.896
5.29746,558.465
5.29926,565.388
5.30106,573.246
5.30286,581.012
5.30466,590.28
5.30646,599.906
5.30826,610.509
5.31006,622.103
5.31186,633.571
5.31366,646.906
5.31546,661.114
5.31726,674.949
5.31906,689.662
5.32086,705.403
5.32266,722.556
5.32446,740.45
5.32627,759.24
5.32807,778.674
5.32987,798.665
5.33167,819.539
5.33347,841.203
5.33527,863.913
5.33707,887.405
5.33887,912.076
5.34067,937.181
5.34247,962.46
5.34427,988.891
5.34607,1016.64
5.34787,1044.39
5.34967,1072.81
5.35147,1101.86
5.35327,1131.89
5.35507,1162.3
5.35687,1193.2
5.35867,1224.81
5.36047,1256.32
5.36227,1289.14
5.36407,1322.12
5.36587,1355.17
5.36767,1388.65
5.36947,1422.04
5.37127,1455.67
5.37307,1489.99
5.37488,1524.45
5.37668,1558.63
5.37848,1592.98
5.38028,1627.44
5.38208,1661.09
5.38388,1695.56
5.38568,1729.7
5.38748,1762.84
5.38928,1795.56
5.39108,1828.15
5.39288,1860.85
5.39468,1892.46
5.39648,1924.82
5.39828,1956.12
5.40008,1985.93
5.40188,2014.77
5.40368,2043.35
5.40548,2071.1
5.40728,2098.39
5.40908,2124.93
5.41088,2150.11
5.41268,2174.48
5.41448,2197.45
5.41628,2219.58
5.41808,2240.71
5.41988,2261.21
5.42168,2280.5
5.42348,2298.06
5.42528,2314.61
5.42709,2329.71
5.42889,2343.63
5.43069,2357.1
5.43249,2368.83
5.43429,2379.5
5.43609,2388.64
5.43789,2396.62
5.43969,2403.66
5.44149,2408.96
5.44329,2413.48
5.44509,2417.25
5.44689,2418.96
5.44869,2419.73
5.45049,2419.33
5.45229,2418.7
5.45409,2416.74
5.45589,2413.24
5.45769,2408.45
5.45949,2402.67
5.46129,2396.16
5.46309,2389.29
5.46489,2381.89
5.46669,2373.57
5.46849,2364.04
5.47029,2354.05
5.47209,2343.4
5.47389,2333.06
5.4757,2321.22
5.4775,2309.1
5.4793,2297.01
5.4811,2284.86
5.4829,2272.31
5.4847,2258.72
5.4865,2245.3
5.4883,2232.11
5.4901,2219.32
5.4919,2206.35
5.4937,2193.63
5.4955,2180.39
5.4973,2167.35
5.4991,2154.71
5.5009,2142.89
5.5027,2131
5.5045,2119.54
5.5063,2109.02
5.5081,2098.81
5.5099,2088.81
5.5117,2079.08
5.5135,2069.6
5.5153,2061.49
5.5171,2053.82
5.5189,2045.77
5.5207,2039.08
5.5225,2033.58
5.5243,2028.62
5.5261,2023.49
5.52791,2019.26
5.52971,2016.48
5.53151,2014.05
5.53331,2012.16
5.53511,2010.83
5.53691,2010.17
5.53871,2010.64
5.54051,2011.21
5.54231,2012.46
5.54411,2014.68
5.54591,2016.76
5.54771,2019.62
5.54951,2023.45
5.55131,2028.25
5.55311,2032.13
5.55491,2036.94
5.55671,2043.29
5.55851,2049.26
5.56031,2055.44
5.56211,2062.75
5.56391,2070.53
5.56571,2078.13
5.56751,2085.68
5.56931,2094.65
5.57111,2102.79
5.57291,2111.32
5.57471,2120.09
5.57652,2130.06
5.57832,2139.84
5.58012,2149.91
5.58192,2159.62
5.58372,2169.53
5.58552,2180.25
5.58732,2191.39
5.58912,2201.72
5.59092,2212.69
5.59272,2224.4
5.59452,2235.92
5.59632,2247.26
5.59812,2258.78
5.59992,2270.74
5.60172,2282.53
5.60352,2294.31
5.60532,2306.51
5.60712,2319.14
5.60892,2332.01
5.61072,2344.46
5.61252,2357.66
5.61432,2370.41
5.61612,2384.05
5.61792,2397.79
5.61972,2411.54
5.62152,2425.74
5.62332,2440.21
5.62512,2454.46
5.62693,2469.14
5.62873,2483.6
5.63053,2498.29
5.63233,2512.98
5.63413,2528.65
5.63593,2544.91
5.63773,2560.95
5.63953,2577.1
5.64133,2593.52
5.64313,2609.62
5.64493,2625.91
5.64673,2642.87
5.64853,2660.5
5.65033,2677.09
5.65213,2694.06
5.65393,2711.54
5.65573,2728.42
5.65753,2745.1
5.65933,2762.15
5.66113,2779.28
5.66293,2795.93
5.66473,2812.99
5.66653,2829.46
5.66833,2845.56
5.67013,2861.69
5.67193,2878.04
5.67373,2893.53
5.67554,2909.09
5.67734,2924.15
5.67914,2937.96
5.68094,2951.78
5.68274,2965.09
5.68454,2977.26
5.68634,2988.97
5.68814,3000.35
5.68994,3010.9
5.69174,3020.74
5.69354,3029.21
5.69534,3037.02
5.69714,3045.05
5.69894,3051.33
5.70074,3056.6
5.70254,3060.86
5.70434,3064.57
5.70614,3067.25
5.70794,3068.19
5.70974,3067.87
5.71154,3066.68
5.71334,3064.22
5.71514,3060.21
5.71694,3055.89
5.71874,3049.68
5.72054,3042.29
5.72234,3034.09
5.72414,3024.58
5.72594,3013.96
5.72775,3001.94
5.72955,2988.55
5.73135,2974.45
5.73315,2959.72
5.73495,2943.1
5.73675,2924.99
5.73855,2905.69
5.74035,2885.73
5.74215,2864.45
5.74395,2842.37
5.74575,2819.74
5.74755,2796.41
5.74935,2771.25
5.75115,2745.26
5.75295,2719.06
5.75475,2691.98
5.75655,2664.07
5.75835,2635.43
5.76015,2606.87
5.76195,2577.29
5.76375,2547.81
5.76555,2517.45
5.76735,2486.32
5.76915,2455.64
5.77095,2424.63
5.77275,2393.27
5.77455,2361.05
5.77636,2329.45
5.77816,2298.14
5.77996,2266.9
5.78176,2235.89
5.78356,2204.74
5.78536,2174.56
5.78716,2144.14
5.78896,2114.1
5.79076,2085.16
5.79256,2056.48
5.79436,2028.29
5.79616,2000.72
5.79796,1973.57
5.79976,1947.15
5.80156,1921.63
5.80336,1896.73
5.80516,1873.11
5.80696,1850.23
5.80876,1828.16
5.81056,1806.96
5.81236,1786.95
5.81416,1768.95
5.81596,1751.31
5.81776,1734.57
5.81956,1718.72
5.82136,1703.73
5.82316,1689.87
5.82497,1677.77
5.82677,1666.81
5.82857,1656.6
5.83037,1647.53
5.83217,1639.78
5.83397,1633.64
5.83577,1627.88
5.83757,1623.61
5.83937,1620.54
5.84117,1618.61
5.84297,1617.55
5.84477,1618.06
5.84657,1619.23
5.84837,1621.58
5.85017,1625
5.85197,1629.19
5.85377,1634.48
5.85557,1640.44
5.85737,1648.06
5.85917,1655.73
5.86097,1664.26
5.86277,1673.85
5.86457,1684.21
5.86637,1695.35
5.86817,1707.16
5.86997,1719.86
5.87177,1733.03
5.87357,1746.74
5.87537,1761.19
5.87718,1776.09
5.87898,1791.69
5.88078,1807.26
5.88258,1822.94
5.88438,1839.36
5.88618,1856.17
5.88798,1873.41
5.88978,1890.23
5.89158,1907.52
5.89338,1925.21
5.89518,1943.47
5.89698,1961.64
5.89878,1980.36
5.90058,1999.3
5.90238,2017.75
5.90418,2036.37
5.90598,2055.27
5.90778,2073.75
5.90958,2092.35
5.91138,2110.84
5.91318,2129.64
5.91498,2148.34
5.91678,2166.48
5.91858,2184.7
5.92038,2203.69
5.92218,2222.73
5.92398,2241.62
5.92579,2260.76
5.92759,2279.54
5.92939,2297.95
5.93119,2316.84
5.93299,2335.77
5.93479,2354.6
5.93659,2373.38
5.93839,2392.41
5.94019,2411.6
5.94199,2431
5.94379,2451.04
5.94559,2470.57
5.94739,2490.61
5.94919,2510.55
5.95099,2530.97
5.95279,2551.97
5.95459,2572.85
5.95639,2594.41
5.95819,2616.41
5.95999,2638.94
5.96179,2662.07
5.96359,2685.39
5.96539,2708.69
5.96719,2733.01
5.96899,2757.42
5.97079,2783.12
5.97259,2808.82
5.97439,2835.12
5.9762,2862.38
5.978,2889.62
5.9798,2918.15
5.9816,2947.28
5.9834,2976.81
5.9852,3007.25
5.987,3038.25
5.9888,3069.9
5.9906,3102.12
5.9924,3135.2
5.9942,3168.76
5.996,3202.81
5.9978,3238.09
5.9996,3273.75
6.0014,3309.51
6.0032,3345.44
6.005,3382.08
6.0068,3419.66
6.0086,3458.12
6.0104,3497.22
6.0122,3535.85
6.014,3575.21
6.0158,3615.09
6.0176,3654.77
6.0194,3694.71
6.0212,3734.4
6.023,3774.23
6.02481,3814.35
6.02661,3854.77
6.02841,3894.92
6.03021,3934.44
6.03201,3974.24
6.03381,4013.48
6.03561,4052.51
6.03741,4090.7
6.03921,4128.96
6.04101,4166.64
6.04281,4202.9
6.04461,4238.81
6.04641,4273.8
6.04821,4307.79
6.05001,4340.95
6.05181,4373.79
6.05361,4405.01
6.05541,4434.73
6.05721,4463.31
6.05901,4490.59
6.06081,4516.24
6.06261,4540.79
6.06441,4563.18
6.06621,4584.51
6.06801,4605.02
6.06981,4623.21
6.07161,4639.28
6.07341,4654.31
6.07521,4666.71
6.07702,4677.3
6.07882,4686.49
6.08062,4693.67
6.08242,4698.74
6.08422,4701.77
6.08602,4702.53
6.08782,4701.94
6.08962,4698.95
6.09142,4693.71
6.09322,4686.5
6.09502,4677.76
6.09682,4666.76
6.09862,4653.74
6.10042,4638.72
6.10222,4621.82
6.10402,4602.83
6.10582,4582.26
6.10762,4559.81
6.10942,4535.6
6.11122,4508.95
6.11302,4480.59
6.11482,4450.71
6.11662,4419.57
6.11842,4386.79
6.12022,4352.67
6.12202,4317.09
6.12382,4280.23
6.12563,4241.65
6.12743,4202.41
6.12923,4161.97
6.13103,4120.13
6.13283,4077.36
6.13463,4033.61
6.13643,3989.05
6.13823,3944.23
6.14003,3898.59
6.14183,3852.73
6.14363,3806.15
6.14543,3759.26
6.14723,3712.01
6.14903,3664.13
6.15083,3617.07
6.15263,3569.39
6.15443,3521.75
6.15623,3474.17
6.15803,3427.5
6.15983,3380.69
6.16163,3334.09
6.16343,3288.04
6.16523,3242.58
6.16703,3197.72
6.16883,3153.32
6.17063,3109.58
6.17243,3066.74
6.17423,3024.25
6.17603,2983.32
6.17784,2942.99
6.17964,2903.12
6.18144,2864.89
6.18324,2827.24
6.18504,2790.9
6.18684,2754.98
6.18864,2720.72
6.19044,2687.03
6.19224,2654.34
6.19404,2622.96
6.19584,2593.04
6.19764,2564.38
6.19944,2536.4
6.20124,2509.09
6.20304,2482.42
6.20484,2457.69
6.20664,2434.1
6.20844,2410.73
6.21024,2388.84
6.21204,2368.06
6.21384,2347.83
6.21564,2328.96
6.21744,2310.57
6.21924,2293.18
6.22104,2276.17
6.22284,2260.4
6.22464,2245.45
6.22645,2230.86
6.22825,2216.59
6.23005,2203.32
6.23185,2191.07
6.23365,2179.04
6.23545,2167.52
6.23725,2155.98
6.23905,2145.4
6.24085,2135.19
6.24265,2125.09
6.24445,2115.4
6.24625,2106.14
6.24805,2096.68
6.24985,2087.87
6.25165,2079.22
6.25345,2070.92
6.25525,2062.64
6.25705,2054.03
6.25885,2045.85
6.26065,2038.11
6.26245,2029.96
6.26425,2021.62
6.26605,2013.72
6.26785,2005.69
6.26965,1997.85
6.27145,1989.62
6.27325,1981.47
6.27505,1973.17
6.27686,1965.02
6.27866,1956.74
6.28046,1948.65
6.28226,1940.26
6.28406,1931.98
6.28586,1922.89
6.28766,1914.4
6.28946,1905.92
6.29126,1897.11
6.29306,1888.25
6.29486,1879.11
6.29666,1869.98
6.29846,1860.71
6.30026,1851.33
6.30206,1842.19
6.30386,1833
6.30566,1823.69
6.30746,1813.8
6.30926,1804.33
6.31106,1795.14
6.31286,1785.5
6.31466,1775.32
6.31646,1765.37
6.31826,1755.95
6.32006,1745.84
6.32186,1735.84
6.32366,1725.48
6.32547,1715.55
6.32727,1705.45
6.32907,1695.19
6.33087,1684.56
6.33267,1674.56
6.33447,1664.45
6.33627,1653.98
6.33807,1643.45
6.33987,1633.08
6.34167,1622.07
6.34347,1611.45
6.34527,1600.92
6.34707,1590.31
6.34887,1579.05
6.35067,1568.07
6.35247,1557.36
6.35427,1546.49
6.35607,1534.81
6.35787,1523.18
6.35967,1512.06
6.36147,1501.02
6.36327,1489.33
6.36507,1477.74
6.36687,1466.31
6.36867,1454.7
6.37047,1442.79
6.37227,1431.44
6.37407,1420.15
6.37587,1407.64
6.37768,1395.46
6.37948,1383.64
6.38128,1371.68
6.38308,1359.4
6.38488,1346.8
6.38668,1334.96
6.38848,1322.74
6.39028,1310.76
6.39208,1299.35
6.39388,1287.02
6.39568,1274.51
6.39748,1261.84
6.39928,1249.71
6.40108,1238.39
6.40288,1226.79
6.40468,1214.7
6.40648,1202.11
6.40828,1190.15
6.41008,1178.57
6.41188,1166.72
6.41368,1155.28
6.41548,1143.54
6.41728,1131.78
6.41908,1120.91
6.42088,1109.74
6.42268,1098.58
6.42448,1087.47
6.42629,1076.34
6.42809,1066.03
6.42989,1055.66
6.43169,1045.68
6.43349,1035.06
6.43529,1024.47
6.43709,1014.03
6.43889,1004.83
6.44069,995.215
6.44249,985.612
6.44429,976.313
6.44609,967.324
6.44789,958.159
6.44969,949.848
6.45149,940.818
6.45329,932.024
6.45509,923.806
6.45689,915.795
6.45869,908.517
6.46049,900.769
6.46229,892.958
6.46409,885.385
6.46589,878.276
6.46769,870.979
6.46949,864.131
6.47129,857.172
6.47309,850.286
6.4749,844.249
6.4767,837.72
6.4785,831.828
6.4803,826.076
6.4821,820.292
6.4839,814.795
6.4857,809.568
6.4875,804.324
6.4893,798.949
6.4911,793.401
6.4929,788.337
6.4947,783.696
6.4965,778.981
6.4983,774.443
6.5001,769.802
6.5019,765.862
6.5037,761.658
6.5055,757.385
6.5073,753.162
6.5091,749.356
6.5109,745.701
6.5127,742.3
6.5145,738.788
6.5163,734.846
6.5181,731.715
6.5199,728.276
6.5217,724.819
6.5235,721.355
6.5253,717.834
6.52711,714.194
6.52891,711.406
6.53071,707.916
6.53251,704.683
6.53431,702.252
6.53611,699.439
6.53791,696.194
6.53971,693.026
6.54151,690.125
6.54331,687.098
6.54511,683.958
6.54691,680.567
6.54871,677.54
6.55051,674.378
6.55231,670.999
6.55411,667.687
6.55591,664.463
6.55771,660.934
6.55951,657.694
6.56131,654.293
6.56311,650.998
6.56491,647.596
6.56671,644.258
6.56851,640.625
6.57031,637.185
6.57211,633.547
6.57391,629.888
6.57572,626.518
6.57752,622.244
6.57932,618.214
6.58112,614.216
6.58292,610.3
6.58472,606.462
6.58652,602.775
6.58832,598.816
6.59012,595.171
6.59192,591.431
6.59372,587.527
6.59552,583.978
6.59732,579.922
6.59912,575.503
6.60092,572.112
6.60272,568.765
6.60452,565.115
6.60632,561.415
6.60812,557.414
6.60992,553.802
6.61172,550.487
6.61352,547.118
6.61532,543.948
6.61712,541.063
6.61892,537.786
6.62072,534.695
6.62252,532.011
6.62432,530.206
6.62613,527.183
6.62793,524.826
6.62973,522.957
6.63153,520.891
6.63333,518.587
6.63513,516.645
6.63693,515.134
6.63873,513.641
6.64053,511.496
6.64233,510.65
6.64413,509.6
6.64593,508.692
6.64773,507.837
6.64953,507.021
6.65133,506.636
6.65313,506.574
6.65493,506.231
6.65673,506.077
6.65853,505.869
6.66033,505.806
6.66213,506.376
6.66393,506.611
6.66573,506.698
6.66753,506.851
6.66933,506.787
6.67113,507.467
6.67293,508.306
6.67474,509.285
6.67654,509.708
6.67834,510.074
6.68014,511.004
6.68194,511.962
6.68374,512.771
6.68554,513.743
6.68734,514.265
6.68914,514.896
6.69094,515.315
6.69274,516.306
6.69454,516.667
6.69634,516.974
6.69814,517.229
6.69994,518.039
6.70174,518.634
6.70354,518.967
6.70534,518.668
6.70714,518.928
6.70894,519.604
6.71074,520.116
6.71254,520.09
6.71434,519.793
6.71614,519.885
6.71794,520.033
6.71974,520.044
6.72154,519.902
6.72334,519.571
6.72514,519.08
6.72695,519.238
6.72875,519.268
6.73055,519.365
6.73235,519.228
6.73415,519.166
6.73595,519.777
6.73775,520.64
6.73955,521.189
6.74135,521.866
6.74315,523.097
6.74495,523.806
6.74675,524.87
6.74855,526.501
6.75035,528.231
6.75215,530.691
6.75395,532.791
6.75575,535.867
6.75755,539.31
6.75935,543.221
6.76115,547.234
6.76295,552.151
6.76475,557.899
6.76655,564.215
6.76835,570.496
6.77015,577.614
6.77195,585.252
6.77375,594.101
6.77556,603.56
6.77736,613.666
6.77916,624.238
6.78096,635.95
6.78276,648.621
6.78456,662.569
6.78636,677.022
6.78816,692.599
6.78996,709.291
6.79176,726.632
6.79356,745.516
6.79536,765.874
6.79716,786.364
6.79896,808.105
6.80076,831.172
6.80256,855.451
6.80436,880.788
6.80616,907.717
6.80796,935.306
6.80976,963.952
6.81156,994.469
6.81336,1026.18
6.81516,1058.28
6.81696,1092.25
6.81876,1127.51
6.82056,1164.06
6.82236,1201.71
6.82416,1240.21
6.82596,1280.15
6.82777,1320.98
6.82957,1363.05
6.83137,1406.26
6.83317,1450.97
6.83497,1496.4
6.83677,1542.58
6.83857,1589.33
6.84037,1637.59
6.84217,1686.53
6.84397,1736.47
6.84577,1787.53
6.84757,1839.37
6.84937,1891.97
6.85117,1944.67
6.85297,1998.27
6.85477,2052.24
6.85657,2106.84
6.85837,2161.96
6.86017,2217.34
6.86197,2273.07
6.86377,2328.87
6.86557,2385.15
6.86737,2440.8
6.86917,2497.22
6.87097,2553.37
6.87277,2609.41
6.87457,2665.29
6.87638,2721.15
6.87818,2776.46
6.87998,2831.55
6.88178,2885.97
6.88358,2939.87
6.88538,2993.68
6.88718,3046.78
6.88898,3098.79
6.89078,3149.61
6.89258,3200.12
6.89438,3249.32
6.89618,3297.72
6.89798,3344.85
6.89978,3391.05
6.90158,3435.89
6.90338,3480.1
6.90518,3522.97
6.90698,3564.31
6.90878,3603.58
6.91058,3641.73
6.91238,3678.54
6.91418,3713.83
6.91598,3747.6
6.91778,3779.47
6.91958,3809.96
6.92138,3838.71
6.92318,3865.72
6.92498,3890.42
6.92679,3913.38
6.92859,3934.95
6.93039,3954.85
6.93219,3972.89
6.93399,3988.65
6.93579,4002.7
6.93759,4015.07
6.93939,4025.62
6.94119,4034.13
6.94299,4040.9
6.94479,4045.26
6.94659,4048.04
6.94839,4049.12
6.95019,4048.79
6.95199,4046.14
6.95379,4041.68
6.95559,4035.51
6.95739,4027.9
6.95919,4018.71
6.96099,4007.57
6.96279,3995.06
6.96459,3980.97
6.96639,3965.34
6.96819,3948.36
6.96999,3929.59
6.97179,3909.94
6.97359,3889.4
6.9754,3867.19
6.9772,3843.62
6.979,3819.3
6.9808,3793.8
6.9826,3767.73
6.9844,3740.33
6.9862,3712.24
6.988,3684.14
6.9898,3654.79
6.9916,3625.17
6.9934,3595.15
6.9952,3564.85
6.997,3533.91
6.9988,3502.53
7.0006,3471.55
7.0024,3440.33
7.0042,3408.69
7.006,3377.61
7.0078,3346.65
7.0096,3316.3
7.0114,3285.9
7.0132,3255.73
7.015,3225.83
7.0168,3197.24
7.0186,3168.75
7.0204,3140.95
7.0222,3113.8
7.024,3087.33
7.0258,3061.54
7.02761,3037.29
7.02941,3013.56
7.03121,2990.63
7.03301,2968.72
7.03481,2947.82
7.03661,2928.18
7.03841,2909.07
7.04021,2891.26
7.04201,2874.5
7.04381,2859.27
7.04561,2845.09
7.04741,2831.95
7.04921,2819.92
7.05101,2808.81
7.05281,2798.51
7.05461,2789.74
7.05641,2782.22
7.05821,2775.87
7.06001,2769.76
7.06181,2765.41
7.06361,2762.33
7.06541,2759.74
7.06721,2758.03
7.06901,2757.16
7.07081,2757.18
7.07261,2758.09
7.07441,2759.63
7.07622,2762.57
7.07802,2765.91
7.07982,2769.85
7.08162,2775.03
7.08342,2780.35
7.08522,2786.3
7.08702,2792.65
7.08882,2799.59
7.09062,2806.79
7.09242,2814.45
7.09422,2823.08
7.09602,2831.67
7.09782,2840.66
7.09962,2850.01
7.10142,2859.81
7.10322,2869.84
7.10502,2880.54
7.10682,2890.94
7.10862,2901.29
7.11042,2912.27
7.11222,2923.63
7.11402,2935.4
7.11582,2947.12
7.11762,2958.99
7.11942,2971.43
7.12122,2984.04
7.12302,2997.18
7.12483,3010.49
7.12663,3023.54
7.12843,3036.85
7.13023,3050.93
7.13203,3065.64
7.13383,3080.62
7.13563,3095.93
7.13743,3111.6
7.13923,3127.82
7.14103,3144.76
7.14283,3162.09
7.14463,3179.55
7.14643,3198
7.14823,3217.2
7.15003,3237.18
7.15183,3257.14
7.15363,3278.27
7.15543,3300.18
7.15723,3322.75
7.15903,3346.07
7.16083,3369.72
7.16263,3394.59
7.16443,3419.66
7.16623,3445.99
7.16803,3473.11
7.16983,3501.34
7.17163,3530.32
7.17343,3559.5
7.17523,3589.54
7.17704,3620.67
7.17884,3651.92
7.18064,3683.74
7.18244,3716.73
7.18424,3749.88
7.18604,3783.49
7.18784,3817.79
7.18964,3852.66
7.19144,3887.84
7.19324,3923.37
7.19504,3959.04
7.19684,3994.77
7.19864,4030.02
7.20044,4065.7
7.20224,4101.53
7.20404,4137.34
7.20584,4172.48
7.20764,4207.09
7.20944,4241.54
7.21124,4276.24
7.21304,4309.58
7.21484,4341.71
7.21664,4373.38
7.21844,4404.31
7.22024,4433.85
7.22204,4462.21
7.22384,4490.2
7.22565,4516.34
7.22745,4540.99
7.22925,4564.41
7.23105,4586.31
7.23285,4606.81
7.23465,4624.96
7.23645,4641.29
7.23825,4655.7
7.24005,4668.66
7.24185,4679.47
7.24365,4687.96
7.24545,4694.33
7.24725,4698.77
7.24905,4700.98
7.25085,4700.85
7.25265,4698.77
7.25445,4693.72
7.25625,4686.63
7.25805,4677.18
7.25985,4665.68
7.26165,4651.84
7.26345,4635.42
7.26525,4616.99
7.26705,4596.18
7.26885,4572.55
7.27065,4547.23
7.27245,4519.47
7.27425,4489.34
7.27606,4457.41
7.27786,4423.52
7.27966,4388.07
7.28146,4350.33
7.28326,4310.58
7.28506,4268.81
7.28686,4225.77
7.28866,4181.33
7.29046,4135.04
7.29226,4087.21
7.29406,4038.38
7.29586,3988.27
7.29766,3937
7.29946,3884.66
7.30126,3831.78
7.30306,3778.14
7.30486,3723.54
7.30666,3668.39
7.30846,3613.25
7.31026,3557.05
7.31206,3501.07
7.31386,3444.85
7.31566,3388.77
7.31746,3333.18
7.31926,3277.79
7.32106,3222.9
7.32286,3168.35
7.32466,3114.38
7.32647,3061.09
7.32827,3008.53
7.33007,2956.88
7.33187,2906.4
7.33367,2857.06
7.33547,2808.91
7.33727,2762.25
7.33907,2717.33
7.34087,2673.51
7.34267,2631.09
7.34447,2590.43
7.34627,2551.72
7.34807,2514.84
7.34987,2479.4
7.35167,2446.15
7.35347,2414.53
7.35527,2385.33
7.35707,2358.2
7.35887,2332.84
7.36067,2310
7.36247,2289.13
7.36427,2270.18
7.36607,2254.17
7.36787,2239.79
7.36967,2227.56
7.37147,2217.71
7.37327,2209.93
7.37507,2204.55
7.37688,2201.56
7.37868,2200.54
7.38048,2201.46
7.38228,2204.41
7.38408,2209.44
7.38588,2216.58
7.38768,2225.71
7.38948,2237.02
7.39128,2250.06
7.39308,2265.01
7.39488,2281.79
7.39668,2300.21
7.39848,2319.98
7.40028,2341.39
7.40208,2364.37
7.40388,2388.55
7.40568,2414.54
7.40748,2441.44
7.40928,2469.31
7.41108,2498.62
7.41288,2528.89
7.41468,2559.46
7.41648,2591.07
7.41828,2623.68
7.42008,2656.7
7.42188,2690.22
7.42368,2724.05
7.42549,2757.88
7.42729,2792.48
7.42909,2826.85
7.43089,2861.39
7.43269,2895.95
7.43449,2930.09
7.43629,2963.8
7.43809,2997.18
7.43989,3030.03
7.44169,3062.33
7.44349,3093.63
7.44529,3124.15
7.44709,3154.63
7.44889,3183.74
7.45069,3211.88
7.45249,3238.64
7.45429,3264.6
7.45609,3289.16
7.45789,3312.14
7.45969,3334.27
7.46149,3354.99
7.46329,3373.87
7.46509,3391.47
7.46689,3407.16
7.46869,3421.49
7.47049,3434.3
7.47229,3445.33
7.47409,3454.42
7.47589,3461.93
7.4777,3467.43
7.4795,3471.61
7.4813,3473.8
7.4831,3473.89
7.4849,3472.58
7.4867,3469.49
7.4885,3464.37
7.4903,3457.3
7.4921,3448.66
7.4939,3438.26
7.4957,3426.09
7.4975,3412.12
7.4993,3396.33
7.5011,3378.79
7.5029,3360.1
7.5047,3339.67
7.5065,3316.99
7.5083,3293.46
7.5101,3268.17
7.5119,3241.39
7.5137,3213.43
7.5155,3183.79
7.5173,3153.34
7.5191,3121.41
7.5209,3088.04
7.5227,3054.21
7.5245,3018.97
7.52631,2982.5
7.52811,2945.19
7.52991,2906.81
7.53171,2867.9
7.53351,2828.43
7.53531,2787.95
7.53711,2746.78
7.53891,2705.02
7.54071,2663.36
7.54251,2620.96
7.54431,2577.92
7.54611,2534.24
7.54791,2490.62
7.54971,2447.17
7.55151,2403.32
7.55331,2359.45
7.55511,2315.2
7.55691,2271.32
7.55871,2227.43
7.56051,2183.57
7.56231,2140.11
7.56411,2096.73
7.56591,2053.72
7.56771,2011.18
7.56951,1968.97
7.57131,1927.34
7.57311,1886.33
7.57491,1845.56
7.57672,1804.69
7.57852,1765.18
7.58032,1726.4
7.58212,1688.12
7.58392,1650.57
7.58572,1613.69
7.58752,1578.23
7.58932,1543.15
7.59112,1508.92
7.59292,1475.43
7.59472,1443.17
7.59652,1412.05
7.59832,1381.48
7.60012,1352.27
7.60192,1324.06
7.60372,1296.36
7.60552,1270.39
7.60732,1245.56
7.60912,1221.33
7.61092,1198.65
7.61272,1177.01
7.61452,1156.64
7.61632,1137.59
7.61812,1119.59
7.61992,1102.71
7.62172,1087.67
7.62352,1073.56
7.62532,1061.06
7.62713,1049.67
7.62893,1039.61
7.63073,1031.21
7.63253,1023.69
7.63433,1017.41
7.63613,1013.03
7.63793,1009.97
7.63973,1008.24
7.64153,1008.15
7.64333,1009.21
7.64513,1011.61
7.64693,1015.69
7.64873,1021.37
7.65053,1028.55
7.65233,1036.73
7.65413,1046.71
7.65593,1058.44
7.65773,1071.19
7.65953,1085.52
7.66133,1101.22
7.66313,1118.65
7.66493,1137.94
7.66673,1157.98
7.66853,1179.54
7.67033,1202.65
7.67213,1227.11
7.67393,1253.03
7.67573,1280.17
7.67754,1309.08
7.67934,1339.4
7.68114,1371.14
7.68294,1403.9
7.68474,1438.2
7.68654,1473.43
7.68834,1509.47
7.69014,1547.6
7.69194,1586.58
7.69374,1626.61
7.69554,1667.86
7.69734,1710.38
7.69914,1753.45
7.70094,1797.84
7.70274,1842.65
7.70454,1888.53
7.70634,1935.08
7.70814,1982.25
7.70994,2030.59
7.71174,2079.43
7.71354,2128.54
7.71534,2178.4
7.71714,2228.55
7.71894,2279.02
7.72074,2329.56
7.72254,2380.21
7.72434,2431.44
7.72615,2482.76
7.72795,2533.66
7.72975,2584.31
7.73155,2635.07
7.73335,2685.77
7.73515,2735.75
7.73695,2785.47
7.73875,2834.45
7.74055,2882.9
7.74235,2930.79
7.74415,2977.76
7.74595,3023.73
7.74775,3069.11
7.74955,3113.37
7.75135,3156.3
7.75315,3198.32
7.75495,3239.12
7.75675,3278.62
7.75855,3316.88
7.76035,3353.15
7.76215,3388.04
7.76395,3421.48
7.76575,3453.1
7.76755,3483.14
7.76935,3511.62
7.77115,3538.22
7.77295,3563.21
7.77476,3586
7.77656,3606.33
7.77836,3625.11
7.78016,3642
7.78196,3656.77
7.78376,3669.63
7.78556,3680.05
7.78736,3688.59
7.78916,3695.46
7.79096,3699.96
7.79276,3701.86
7.79456,3702.25
7.79636,3700.7
7.79816,3696.46
7.79996,3690.6
7.80176,3682.35
7.80356,3672.42
7.80536,3660.54
7.80716,3646.49
7.80896,3630.67
7.81076,3613.21
7.81256,3593.94
7.81436,3572.51
7.81616,3549.53
7.81796,3524.71
7.81976,3498.44
7.82156,3471.36
7.82336,3442.29
7.82516,3412
7.82697,3380.32
7.82877,3347.47
7.83057,3313.26
7.83237,3278.24
7.83417,3241.89
7.83597,3204.83
7.83777,3167.04
7.83957,3128.3
7.84137,3089.36
7.84317,3049.7
7.84497,3009.28
7.84677,2968.48
7.84857,2927.45
7.85037,2886.18
7.85217,2844.77
7.85397,2803.22
7.85577,2761.46
7.85757,2720.09
7.85937,2678.82
7.86117,2637.56
7.86297,2596.72
7.86477,2556.45
7.86657,2516.35
7.86837,2476.82
7.87017,2437.63
7.87197,2398.85
7.87377,2360.92
7.87558,2323.37
7.87738,2286.93
7.87918,2251.61
7.88098,2216.91
7.88278,2182.56
7.88458,2149.4
7.88638,2117.25
7.88818,2086.08
7.88998,2055.51
7.89178,2026.19
7.89358,1997.76
7.89538,1970.45
7.89718,1943.82
7.89898,1918.82
7.90078,1894.64
7.90258,1871.02
7.90438,1848.79
7.90618,1827.82
7.90798,1807.42
7.90978,1788.03
7.91158,1769.53
7.91338,1752.37
7.91518,1736.02
7.91698,1720.28
7.91878,1706.06
7.92058,1692.04
7.92238,1679.25
7.92418,1667.41
7.92598,1656.12
7.92779,1645.11
7.92959,1635.17
7.93139,1625.96
7.93319,1617.56
7.93499,1609.74
7.93679,1602.4
7.93859,1595.56
7.94039,1589.14
7.94219,1583.35
7.94399,1577.79
7.94579,1572.52
7.94759,1567.89
7.94939,1563.3
7.95119,1559.3
7.95299,1555.52
7.95479,1552.03
7.95659,1548.4
7.95839,1545.12
7.96019,1541.68
7.96199,1538.65
7.96379,1535.61
7.96559,1532.29
7.96739,1528.82
7.96919,1525.68
7.97099,1522.73
7.97279,1519.78
7.97459,1516.49
7.9764,1512.88
7.9782,1509.21
7.98,1505.59
7.9818,1501.73
7.9836,1497.62
7.9854,1493.12
7.9872,1488.55
7.989,1484.06
7.9908,1479.36
7.9926,1474.33
7.9944,1469.18
7.9962,1463.62
7.998,1457.58
7.9998,1452.31
8.0016,1446.21
8.0034,1439.95
8.0052,1433.56
8.007,1427.1
8.0088,1420.3
8.0106,1413.37
8.0124,1406.41
8.0142,1399.32
8.016,1392.23
8.0178,1385.13
8.0196,1378.08
8.0214,1370.45
8.0232,1362.81
8.02501,1355.18
8.02681,1348.26
8.02861,1341.32
8.03041,1334.16
8.03221,1327.2
8.03401,1320.37
8.03581,1313.28
8.03761,1306.76
8.03941,1300.25
8.04121,1294.26
8.04301,1288.51
8.04481,1282.86
8.04661,1277.74
8.04841,1273.02
8.05021,1268.65
8.05201,1264.37
8.05381,1260.46
8.05561,1257.67
8.05741,1254.66
8.05921,1252.57
8.06101,1250.99
8.06281,1249.9
8.06461,1249.21
8.06641,1249.72
8.06821,1250.49
8.07001,1251.79
8.07181,1253.73
8.07361,1256.37
8.07541,1259.89
8.07722,1263.74
8.07902,1268.43
8.08082,1273.9
8.08262,1280.82
8.08442,1288.03
8.08622,1295.72
8.08802,1304.2
8.08982,1313.79
8.09162,1324.05
8.09342,1335.19
8.09522,1346.83
8.09702,1359.41
8.09882,1373.1
8.10062,1387.1
8.10242,1402.39
8.10422,1418.07
8.10602,1434.43
8.10782,1451.88
8.10962,1470.05
8.11142,1489.11
8.11322,1508.39
8.11502,1528.78
8.11682,1549.92
8.11862,1571.89
8.12042,1594.1
8.12222,1616.87
8.12403,1640.61
8.12582,1664.97
8.12763,1689.83
8.12943,1715.21
8.13123,1741.08
8.13303,1767.48
8.13483,1794.5
8.13663,1821.41
8.13843,1849.37
8.14023,1877.57
8.14203,1905.74
8.14383,1934.31
8.14563,1963.12
8.14743,1992.39
8.14923,2021.92
8.15103,2051.5
8.15283,2081.21
8.15463,2110.43
8.15643,2139.92
8.15823,2170.07
8.16003,2199.45
8.16183,2228.71
8.16363,2257.98
8.16543,2286.93
8.16723,2316.12
8.16903,2344.38
8.17083,2372.38
8.17263,2400.79
8.17443,2428.17
8.17624,2455.07
8.17804,2481.39
8.17984,2507.23
8.18164,2532.47
8.18344,2556.97
8.18524,2580.9
8.18704,2604.11
8.18884,2626.81
8.19064,2648.27
8.19244,2668.84
8.19424,2688.81
8.19604,2707.53
8.19784,2725.65
8.19964,2742.6
8.20144,2758.81
8.20324,2773.91
8.20504,2787.72
8.20684,2800.35
8.20864,2811.77
8.21044,2822.34
8.21224,2831.4
8.21404,2839.39
8.21584,2846.47
8.21764,2852.22
8.21944,2856.53
8.22124,2859.34
8.22304,2861.44
8.22484,2862.4
8.22664,2862.05
8.22845,2860.33
8.23025,2857.13
8.23205,2852.97
8.23385,2847.08
8.23565,2840.59
8.23745,2832.75
8.23925,2823.84
8.24105,2813.63
8.24285,2802.47
8.24465,2790.32
8.24645,2776.88
8.24825,2762
8.25005,2746.47
8.25185,2730.2
8.25365,2712.86
8.25545,2694.82
8.25725,2675.93
8.25905,2656.2
8.26085,2636.16
8.26265,2614.98
8.26445,2593
8.26625,2570.41
8.26805,2547.31
8.26985,2524.21
8.27165,2500.68
8.27345,2476.7
8.27526,2452.18
8.27706,2427.55
8.27886,2402.76
8.28066,2377.93
8.28246,2353.4
8.28426,2328.7
8.28606,2303.98
8.28786,2278.85
8.28966,2254.33
8.29146,2229.96
8.29326,2206.13
8.29506,2182.69
8.29686,2159.74
8.29866,2137.11
8.30046,2114.73
8.30226,2092.75
8.30406,2071.77
8.30586,2051.2
8.30766,2031.47
8.30946,2012.28
8.31126,1994.01
8.31306,1976.98
8.31486,1960.26
8.31666,1944.34
8.31846,1929.88
8.32026,1915.77
8.32206,1902.3
8.32386,1890.2
8.32566,1878.91
8.32747,1868.84
8.32927,1859.6
8.33107,1851.6
8.33287,1844.55
8.33467,1838.23
8.33647,1832.61
8.33827,1828.61
8.34007,1825.69
8.34187,1823.66
8.34367,1822.03
8.34547,1821.72
8.34727,1822.5
8.34907,1824.24
8.35087,1826.77
8.35267,1830.23
8.35447,1834.58
8.35627,1839.72
8.35807,1845.6
8.35987,1852.1
8.36167,1859.7
8.36347,1868.07
8.36527,1876.85
8.36707,1887.12
8.36887,1897.4
8.37067,1908.36
8.37247,1919.89
8.37428,1931.83
8.37608,1944.62
8.37788,1957.85
8.37968,1970.96
8.38148,1984.76
8.38328,1999.13
8.38508,2013.83
8.38688,2028.43
8.38868,2043.81
8.39048,2059.21
8.39228,2075.07
8.39408,2090.6
8.39588,2106.19
8.39768,2122
8.39948,2137.93
8.40128,2154.24
8.40308,2169.76
8.40488,2185.73
8.40668,2201.56
8.40848,2216.94
8.41028,2232.39
8.41208,2247.76
8.41388,2262.37
8.41568,2276.74
8.41748,2291.13
8.41928,2305.47
8.42108,2318.99
8.42288,2332.39
8.42468,2345.37
8.42649,2357.94
8.42829,2369.87
8.43009,2381.39
8.43189,2391.89
8.43369,2402.23
8.43549,2412.31
8.43729,2421.23
8.43909,2429.77
8.44089,2437.45
8.44269,2444.54
8.44449,2450.97
8.44629,2456.75
8.44809,2462.14
8.44989,2466.1
8.45169,2469.8
8.45349,2472.29
8.45529,2473.89
8.45709,2475.06
8.45889,2475.52
8.46069,2475.22
8.46249,2473.21
8.46429,2471.08
8.46609,2467.51
8.46789,2463.23
8.46969,2458.18
8.47149,2451.99
8.4733,2445.48
8.47509,2437.58
8.4769,2428.97
8.47869,2419.48
8.4805,2409.26
8.4823,2397.94
8.4841,2385.51
8.4859,2372.48
8.4877,2358.73
8.4895,2343.85
8.4913,2328.3
8.4931,2311.63
8.4949,2294.33
8.4967,2276.25
8.4985,2257.37
8.5003,2238.13
8.5021,2217.67
8.5039,2196.31
8.5057,2174.5
8.5075,2152.46
8.5093,2129.49
8.5111,2105.91
8.5129,2081.84
8.5147,2057.26
8.5165,2032.25
8.5183,2006.56
8.5201,1980.64
8.5219,1954.45
8.5237,1927.98
8.52551,1900.68
8.52731,1873.02
8.52911,1845.5
8.53091,1817.74
8.53271,1789.99
8.53451,1762.36
8.53631,1734.49
8.53811,1706.23
8.53991,1678.28
8.54171,1650.66
8.54351,1623.16
8.54531,1595.18
8.54711,1567.69
8.54891,1540.59
8.55071,1513.83
8.55251,1487.28
8.55431,1460.85
8.55611,1435.14
8.55791,1409.65
8.55971,1384.8
8.56151,1360.57
8.56331,1336.53
8.56511,1313.34
8.56691,1290.85
8.56871,1269.25
8.57051,1248.1
8.57231,1227.46
8.57411,1207.65
8.57591,1188.89
8.57771,1171.06
8.57952,1153.8
8.58132,1137.22
8.58312,1121.67
8.58492,1107.31
8.58672,1093.41
8.58852,1081.22
8.59032,1069.99
8.59212,1059.59
8.59392,1049.93
8.59572,1041.13
8.59752,1033.6
8.59932,1027.27
8.60112,1021.82
8.60292,1017.55
8.60472,1014.67
8.60652,1012.87
8.60832,1012.07
8.61012,1011.88
8.61192,1013.21
8.61372,1015.53
8.61552,1018.67
8.61732,1023.36
8.61912,1029.14
8.62092,1036.1
8.62272,1043.61
8.62453,1052.37
8.62633,1062.33
8.62813,1073.06
8.62993,1085.05
8.63173,1097.91
8.63353,1111.97
8.63533,1126.69
8.63713,1142.05
8.63893,1158.42
8.64073,1175.49
8.64253,1193.77
8.64433,1213.04
8.64613,1232.86
8.64793,1253.12
8.64973,1274.15
8.65153,1296.12
8.65333,1318.74
8.65513,1341.38
8.65693,1364.89
8.65873,1388.91
8.66053,1413.1
8.66233,1437.68
8.66413,1462.85
8.66593,1488.46
8.66773,1513.95
8.66953,1539.52
8.67133,1565.57
8.67313,1591.49
8.67493,1618.13
8.67673,1644.48
8.67854,1670.46
8.68034,1696.5
8.68214,1722.5
8.68394,1748.58
8.68574,1773.86
8.68754,1798.94
8.68934,1824.24
8.69114,1848.72
8.69294,1873.16
8.69474,1896.78
8.69654,1919.99
8.69834,1942.84
8.70014,1964.95
8.70194,1986.79
8.70374,2007.88
8.70554,2028.16
8.70734,2047.65
8.70914,2066.28
8.71094,2084.59
8.71274,2102.17
8.71454,2118.81
8.71634,2134.7
8.71814,2149.84
8.71994,2163.87
8.72174,2177.06
8.72355,2189.41
8.72535,2200.8
8.72715,2211.35
8.72895,2221.13
8.73075,2229.85
8.73255,2237.92
8.73435,2244.54
8.73615,2250.7
8.73795,2255.82
8.73975,2260.52
8.74155,2264.11
8.74335,2266.27
8.74515,2268.18
8.74695,2269.09
8.74875,2269.28
8.75055,2268.41
8.75235,2266.89
8.75415,2264.27
8.75595,2261.34
8.75775,2257.51
8.75955,2253.1
8.76135,2247.79
8.76315,2242
8.76495,2235.52
8.76675,2228.36
8.76855,2220.73
8.77035,2212.83
8.77215,2204.09
8.77395,2194.79
8.77575,2185.03
8.77756,2175.19
8.77936,2164.88
8.78116,2153.89
8.78296,2142.87
8.78476,2131.47
8.78656,2119.7
8.78836,2107.93
8.79016,2095.64
8.79196,2083.2
8.79376,2070.49
8.79556,2057.81
8.79736,2045.3
8.79916,2032.11
8.80096,2019.01
8.80276,2006.28
8.80456,1993.35
8.80636,1980.23
8.80816,1967.36
8.80996,1954.29
8.81176,1941.39
8.81356,1928.63
8.81536,1916.18
8.81716,1903.15
8.81896,1890.65
8.82076,1878.55
8.82257,1866.38
8.82436,1854.43
8.82617,1842.8
8.82796,1830.73
8.82977,1819.24
8.83157,1808.21
8.83337,1797.5
8.83517,1786.65
8.83697,1776.21
8.83877,1765.68
8.84057,1755.6
8.84237,1745.78
8.84417,1736.28
8.84597,1726.72
8.84777,1717.51
8.84957,1708.74
8.85137,1700.16
8.85317,1691.5
8.85497,1683.24
8.85677,1674.87
8.85857,1667.15
8.86037,1659.8
8.86217,1651.94
8.86397,1644.53
8.86577,1636.98
8.86757,1629.71
8.86937,1622.59
8.87117,1615.81
8.87297,1609.21
8.87477,1602.4
8.87658,1595.84
8.87838,1589.13
8.88018,1582.71
8.88198,1575.99
8.88378,1569.44
8.88558,1562.61
8.88738,1555.69
8.88918,1549.17
8.89098,1542.38
8.89278,1535.8
8.89458,1528.69
8.89638,1521.46
8.89818,1514.27
8.89998,1506.83
8.90178,1499.34
8.90358,1491.77
8.90538,1483.41
8.90718,1475.19
8.90898,1467.14
8.91078,1458.35
8.91258,1449.6
8.91438,1440.5
8.91618,1431.23
8.91798,1421.66
8.91978,1412.03
8.92158,1401.77
8.92338,1391.21
8.92518,1380.51
8.92698,1369.73
8.92879,1358.88
8.93059,1347.38
8.93239,1335.58
8.93419,1323.62
8.93599,1311.65
8.93779,1299.43
8.93959,1287.05
8.94139,1274.51
8.94319,1261.7
8.94499,1248.64
8.94679,1235.98
8.94859,1223.04
8.95039,1209.84
8.95219,1196.66
8.95399,1183.5
8.95579,1170.1
8.95759,1156.76
8.95939,1143.89
8.96119,1131.25
8.96299,1118.31
8.96479,1105.43
8.96659,1093.1
8.96839,1081.3
8.97019,1069.63
8.97199,1058.01
8.97379,1046.72
8.9756,1036.23
8.9774,1025.89
8.9792,1015.84
8.981,1006.73
8.9828,998.321
8.9846,989.848
8.9864,982.429
8.9882,975.949
8.99,969.596
8.9918,964.27
8.9936,959.658
8.9954,955.902
8.9972,952.861
8.999,950.578
9.0008,949.383
9.0026,949.019
9.0044,949.889
9.0062,951.579
9.008,954.109
9.0098,957.84
9.0116,962.405
9.0134,968.088
9.0152,974.378
9.017,982.171
9.0188,991
9.0206,1001.06
9.0224,1011.88
9.0242,1024.06
9.026,1037.23
9.02781,1051.39
9.02961,1066.86
9.03141,1082.72
9.03321,1100.25
9.03501,1118.76
9.03681,1138.42
9.03861,1158.95
9.04041,1180.41
9.04221,1202.67
9.04401,1226.12
9.04581,1250.61
9.04761,1275.93
9.04941,1302.18
9.05121,1329.19
9.05301,1356.92
9.05481,1385.5
9.05661,1414.75
9.05841,1444.86
9.06021,1475.61
9.06201,1506.86
9.06381,1538.6
9.06561,1571.22
9.06741,1603.92
9.06921,1637.26
9.07101,1671.12
9.07281,1704.86
9.07461,1739.18
9.07642,1773.99
9.07822,1809.03
9.08002,1843.79
9.08182,1878.35
9.08362,1913.7
9.08542,1948.78
9.08722,1983.62
9.08902,2018.22
9.09082,2052.75
9.09262,2087.09
9.09442,2121.27
9.09622,2154.79
9.09802,2188.28
9.09982,2220.9
9.10162,2253.37
9.10342,2285.19
9.10522,2316.26
9.10702,2346.85
9.10882,2376.7
9.11062,2405.51
9.11242,2433.65
9.11422,2461.28
9.11602,2487.83
9.11782,2513.46
9.11962,2538.03
9.12142,2561.9
9.12322,2584.59
9.12502,2606.02
9.12683,2626.46
9.12863,2645.75
9.13043,2663.89
9.13223,2681.03
9.13403,2697.05
9.13583,2711.97
9.13763,2725.72
9.13943,2737.87
9.14123,2748.66
9.14303,2758.94
9.14483,2767.7
9.14663,2775.13
9.14843,2781.24
9.15023,2786.7
9.15203,2790.93
9.15383,2793.45
9.15563,2795.29
9.15743,2795.82
9.15923,2795.32
9.16103,2793.68
9.16283,2791.05
9.16463,2787.68
9.16643,2783.13
9.16823,2777.78
9.17003,2771.35
9.17183,2764.33
9.17363,2756.78
9.17544,2748.24
9.17724,2739.13
9.17904,2729.23
9.18084,2718.88
9.18264,2708.37
9.18444,2697.06
9.18624,2685.49
9.18804,2673.67
9.18984,2661.9
9.19164,2649.59
9.19344,2637.45
9.19524,2625.48
9.19704,2613
9.19884,2601.19
9.20064,2589.26
9.20244,2577.75
9.20424,2566.72
9.20604,2555.63
9.20784,2545.35
9.20964,2535.65
9.21144,2526.74
9.21324,2518.06
9.21504,2510.01
9.21684,2502.97
9.21864,2496.66
9.22044,2491.43
9.22224,2486.91
9.22404,2483.5
9.22585,2481.01
9.22764,2479.83
9.22945,2479.06
9.23125,2479.98
9.23305,2482
9.23485,2485.02
9.23665,2488.92
9.23845,2494.52
9.24025,2501.27
9.24205,2509.42
9.24385,2518.58
9.24565,2528.53
9.24745,2540.07
9.24925,2552.86
9.25105,2567.03
9.25285,2582.3
9.25465,2598.57
9.25645,2616.01
9.25825,2634.45
9.26005,2653.9
9.26185,2674.72
9.26365,2696.38
9.26545,2719
9.26725,2742.41
9.26905,2766.78
9.27085,2791.86
9.27265,2817.51
9.27446,2844.13
9.27625,2871.32
9.27806,2898.66
9.27986,2926.81
9.28166,2955.41
9.28346,2984.29
9.28526,3013.21
9.28706,3042.25
9.28886,3071.72
9.29066,3100.87
9.29246,3130.07
9.29426,3159.3
9.29606,3188
9.29786,3216.77
9.29966,3244.8
9.30146,3272.42
9.30326,3299.68
9.30506,3325.89
9.30686,3351.82
9.30866,3377.09
9.31046,3401.26
9.31226,3424.54
9.31406,3446.96
9.31586,3468.02
9.31766,3488.1
9.31946,3507.31
9.32126,3525.04
9.32306,3541.21
9.32486,3556.45
9.32666,3569.89
9.32847,3581.86
9.33027,3592.65
9.33207,3601.87
9.33387,3609.59
9.33567,3615.74
9.33747,3619.94
9.33927,3622.34
9.34107,3623.46
9.34287,3622.42
9.34467,3620.34
9.34647,3615.95
9.34827,3610.04
9.35007,3602.43
9.35187,3592.94
9.35367,3581.85
9.35547,3569.22
9.35727,3554.65
9.35907,3538.45
9.36087,3520.6
9.36267,3500.92
9.36447,3479.76
9.36627,3457.27
9.36807,3433.17
9.36987,3407.35
9.37167,3379.94
9.37347,3351.52
9.37527,3321.63
9.37708,3290.17
9.37888,3257.66
9.38068,3223.92
9.38248,3189.21
9.38428,3153.43
9.38608,3116.52
9.38788,3078.39
9.38968,3039.63
9.39148,2999.83
9.39328,2959.49
9.39508,2918.68
9.39688,2877.08
9.39868,2835.01
9.40048,2792.27
9.40228,2749.14
9.40408,2706.1
9.40588,2662.83
9.40768,2619.12
9.40948,2575.28
9.41128,2531.59
9.41308,2488.2
9.41488,2444.58
9.41668,2401.33
9.41848,2358.45
9.42028,2316.16
9.42208,2273.95
9.42388,2232.43
9.42568,2191.77
9.42749,2151.41
9.42929,2111.83
9.43109,2072.78
9.43289,2034.5
9.43469,1997.43
9.43649,1961.58
9.43829,1926.25
9.44009,1892.42
9.44189,1859.59
9.44369,1827.8
9.44549,1797.1
9.44729,1767.47
9.44909,1739.41
9.45089,1712.78
9.45269,1687
9.45449,1663.04
9.45629,1640.37
9.45809,1618.88
9.45989,1599.11
9.46169,1580.43
9.46349,1563.47
9.46529,1547.9
9.46709,1533.49
9.46889,1521.11
9.47069,1509.88
9.47249,1500.24
9.47429,1491.87
9.4761,1484.99
9.4779,1479.5
9.4797,1475.29
9.4815,1472.59
9.4833,1471.31
9.4851,1471.14
9.4869,1472.22
9.4887,1474.75
9.4905,1478.57
9.4923,1483.17
9.4941,1489.29
9.4959,1496.37
9.4977,1504.66
9.4995,1513.82
9.5013,1523.45
9.5031,1534.28
9.5049,1546.14
9.5067,1558.86
9.5085,1572.09
9.5103,1586.23
9.5121,1600.82
9.5139,1616.3
9.5157,1631.9
9.5175,1647.91
9.5193,1664.35
9.5211,1681.15
9.5229,1698.17
9.5247,1715.64
9.52651,1733.44
9.52831,1751.17
9.53011,1768.72
9.53191,1786.38
9.53371,1804.1
9.53551,1821.83
9.53731,1839.33
9.53911,1856.41
9.54091,1873.39
9.54271,1889.99
9.54451,1906.44
9.54631,1922.79
9.54811,1938.58
9.54991,1953.63
9.55171,1968.33
9.55351,1982.94
9.55531,1996.81
9.55711,2010.23
9.55891,2023.24
9.56071,2035.16
9.56251,2047.19
9.56431,2058.59
9.56611,2069.34
9.56791,2079.27
9.56971,2089.06
9.57151,2098.11
9.57331,2106.53
9.57512,2114.39
9.57691,2121.85
9.57872,2128.8
9.58052,2135.65
9.58232,2142.05
9.58412,2147.73
9.58592,2152.91
9.58772,2157.83
9.58952,2162.52
9.59132,2166.96
9.59312,2171.2
9.59492,2175.22
9.59672,2178.99
9.59852,2182.57
9.60032,2185.94
9.60212,2189.74
9.60392,2193.3
9.60572,2197.23
9.60752,2200.98
9.60932,2204.86
9.61112,2208.9
9.61292,2213.41
9.61472,2217.78
9.61652,2222.74
9.61832,2228.32
9.62012,2233.99
9.62192,2240.04
9.62372,2246.88
9.62552,2254.38
9.62733,2261.99
9.62913,2270.43
9.63093,2279.38
9.63273,2288.84
9.63453,2299.03
9.63633,2310.16
9.63813,2321.99
9.63993,2334.44
9.64173,2347.74
9.64353,2361.67
9.64533,2376.44
9.64713,2391.51
9.64893,2407.75
9.65073,2424.57
9.65253,2442.36
9.65433,2460.7
9.65613,2479.93
9.65793,2499.83
9.65973,2520.42
9.66153,2541.25
9.66333,2562.82
9.66513,2585.36
9.66693,2608.34
9.66873,2631.65
9.67053,2655.64
9.67233,2679.83
9.67413,2704.83
9.67593,2729.98
9.67774,2755.17
9.67954,2780.85
9.68134,2806.66
9.68314,2832.76
9.68494,2858.75
9.68674,2884.82
9.68854,2910.57
9.69034,2936.63
9.69214,2962.49
9.69394,2988.54
9.69574,3013.85
9.69754,3038.98
9.69934,3063.33
9.70114,3087.57
9.70294,3111.45
9.70474,3134.79
9.70654,3157.35
9.70834,3179.19
9.71014,3200.31
9.71194,3221.12
9.71374,3240.75
9.71554,3259.4
9.71734,3277.13
9.71914,3294.4
9.72094,3310.31
9.72274,3325.34
9.72454,3339.1
9.72635,3352.02
9.72815,3363.81
9.72995,3374.38
9.73175,3383.72
9.73355,3392.09
9.73535,3399.18
9.73715,3405.03
9.73895,3409.79
9.74075,3413.25
9.74255,3415.54
9.74435,3416.5
9.74615,3415.84
9.74795,3414.38
9.74975,3411.67
9.75155,3408.21
9.75335,3402.87
9.75515,3396.8
9.75695,3389.36
9.75875,3380.94
9.76055,3371.35
9.76235,3360.59
9.76415,3348.89
9.76595,3336.13
9.76775,3322.66
9.76955,3307.94
9.77135,3292.36
9.77315,3275.96
9.77495,3258.75
9.77676,3240.63
9.77856,3221.83
9.78036,3202.63
9.78216,3182.28
9.78396,3161.41
9.78576,3140.22
9.78756,3118.5
9.78936,3096.21
9.79116,3073.73
9.79296,3050.38
9.79476,3026.82
9.79656,3003.06
9.79836,2979.3
9.80016,2955.25
9.80196,2931.17
9.80376,2906.48
9.80556,2881.99
9.80736,2857.44
9.80916,2833.3
9.81096,2809.1
9.81276,2784.83
9.81456,2760.7
9.81636,2736.82
9.81816,2712.94
9.81996,2689.91
9.82176,2666.41
9.82356,2643.6
9.82537,2621.33
9.82717,2599.52
9.82897,2578.14
9.83077,2557.12
9.83257,2536.54
9.83437,2516.45
9.83617,2496.92
9.83797,2478.2
9.83977,2459.68
9.84157,2442.02
9.84337,2425.14
9.84517,2408.51
9.84697,2392.9
9.84877,2377.9
9.85057,2363.56
9.85237,2350.05
9.85417,2337.31
9.85597,2325.3
9.85777,2313.79
9.85957,2303.27
9.86137,2293.62
9.86317,2284.65
9.86497,2276.61
9.86677,2269.24
9.86857,2262.66
9.87037,2256.91
9.87217,2252.07
9.87397,2247.72
9.87578,2244.29
9.87757,2241.77
9.87938,2239.99
9.88118,2238.9
9.88298,2238.51
9.88478,2239.25
9.88658,2240.65
9.88838,2242.74
9.89018,2245.4
9.89198,2248.54
9.89378,2252.7
9.89558,2257.56
9.89738,2263.18
9.89918,2269.33
9.90098,2276.27
9.90278,2283.42
9.90458,2291.03
9.90638,2299.65
9.90818,2308.58
9.90998,2318.1
9.91178,2328.08
9.91358,2338.19
9.91538,2348.68
9.91718,2359.64
9.91898,2371.51
9.92078,2383.29
9.92258,2395.01
9.92439,2407.1
9.92618,2419.51
9.92799,2432.01
9.92979,2444.76
9.93159,2457.32
9.93339,2469.98
9.93519,2482.6
9.93699,2495.14
9.93879,2507.84
9.94059,2520.24
9.94239,2532.81
9.94419,2545.26
9.94599,2556.93
9.94779,2568.44
9.94959,2579.56
9.95139,2590.31
9.95319,2600.8
9.95499,2611.26
9.95679,2621.14
9.95859,2630.4
9.96039,2639.07
9.96219,2647.28
9.96399,2654.94
9.96579,2662.19
9.96759,2668.51
9.96939,2674.35
9.97119,2679.26
9.97299,2683.99
9.97479,2688.11
9.97659,2690.94
9.9784,2693.12
9.9802,2694.81
9.982,2695.78
9.9838,2696.02
9.9856,2695.47
9.9874,2693.78
9.9892,2691.5
9.991,2688.67
9.9928,2685.05
9.9946,2680.82
9.9964,2675.65
9.9982,2669.71
10,2663.04
